%OpenBCI Raw EEG Data
%Number of channels = 8
%Sample Rate = 250 Hz
%Board = OpenBCI_GUI$BoardCytonSerial
Sample Index, EXG Channel 0, EXG Channel 1, EXG Channel 2, EXG Channel 3, EXG Channel 4, EXG Channel 5, EXG Channel 6, EXG Channel 7, Accel Channel 0, Accel Channel 1, Accel Channel 2, Other, Other, Other, Other, Other, Other, Other, Analog Channel 0, Analog Channel 1, Analog Channel 2, Timestamp, Other, Timestamp (Formatted)
0.0, 0.0, 0.0, 0.0, 0.0, 0.0, 0.0, 0.0, 0.0, 0.0, 0.0, 0.0, 192.0, 0.0, 0.0, 0.0, 0.0, 0.0, 0.0, 0.0, 0.0, 0.0, 1.625708474258352E9, 0.0, 2021-07-07 21:41:14.258
1.0, -17282.2794058656, 96549.05307877697, -187500.02235174447, -135178.67895110595, -63321.12858547313, -33181.47756832571, 19931.38580696414, 94239.46967595455, 0.14, -0.07200000000000001, 1.004, 192.0, 4.0, 96.0, 253.0, 192.0, 31.0, 96.0, 0.0, 0.0, 0.0, 1.6257084747361932E9, 0.0, 2021-07-07 21:41:14.736
2.0, -17282.011184932137, 96548.4942851656, -187500.02235174447, -135178.67895110595, -63322.693207585005, -33179.51061481364, 19932.928077331555, 94239.26851025445, 0.14, -0.07200000000000001, 1.004, 192.0, 0.0, 0.0, 0.0, 0.0, 0.0, 0.0, 0.0, 0.0, 0.0, 1.6257084747362294E9, 0.0, 2021-07-07 21:41:14.736
3.0, -17305.61462707694, 96555.42332594673, -187500.02235174447, -135189.87717507806, -63346.83309159674, -33200.36479239044, 19911.80567882129, 94223.26466122446, 0.14, -0.07200000000000001, 1.004, 192.0, 0.0, 0.0, 0.0, 0.0, 0.0, 0.0, 0.0, 0.0, 0.0, 1.625708474736243E9, 0.0, 2021-07-07 21:41:14.736
4.0, -17289.65548153585, 96559.40193645978, -187500.02235174447, -135179.57302088416, -63347.235422996935, -33203.67285056983, 19910.12929798714, 94227.08680952631, 0.14, -0.07200000000000001, 1.004, 192.0, 0.0, 0.0, 0.0, 0.0, 0.0, 0.0, 0.0, 0.0, 0.0, 1.625708474736256E9, 0.0, 2021-07-07 21:41:14.736
5.0, -17268.913062681328, 96556.25034049158, -187500.02235174447, -135161.0434247307, -63339.85934732668, -33198.66605981184, 19917.17009749056, 94235.53576893041, 0.14, -0.07200000000000001, 1.004, 192.0, 0.0, 0.0, 0.0, 0.0, 0.0, 0.0, 0.0, 0.0, 0.0, 1.6257084747363615E9, 0.0, 2021-07-07 21:41:14.736
6.0, -17288.85081873546, 96554.79747710198, -187500.02235174447, -135171.7499103248, -63362.59107143773, -33217.95561527677, 19897.880542025632, 94222.79527459088, 0.14, -0.07200000000000001, 1.004, 192.0, 0.0, 0.0, 0.0, 0.0, 0.0, 0.0, 0.0, 0.0, 0.0, 1.6257084747364287E9, 0.0, 2021-07-07 21:41:14.736
7.0, -17330.96150528926, 96559.44663994868, -187500.02235174447, -135178.03075051674, -63370.727106419465, -33222.828295568026, 19890.973852988944, 94224.31519321386, 0.14, -0.07200000000000001, 1.004, 192.0, 0.0, 0.0, 0.0, 0.0, 0.0, 0.0, 0.0, 0.0, 0.0, 1.6257084747364936E9, 0.0, 2021-07-07 21:41:14.736
8.0, -17326.066473253548, 96563.62641616183, -187500.02235174447, -135162.1610119535, -63338.0488560258, -33190.19474866328, 19922.422757437558, 94254.44534473961, 0.138, -0.07, 1.002, 192.0, 4.0, 80.0, 253.0, 208.0, 31.0, 80.0, 0.0, 0.0, 0.0, 1.6257084747365608E9, 0.0, 2021-07-07 21:41:14.736
9.0, -17269.360097570432, 96560.13954402681, -187500.02235174447, -135156.77424153977, -63313.327826658235, -33165.58547801799, 19947.881394372154, 94266.47058325655, 0.138, -0.07, 1.002, 192.0, 0.0, 0.0, 0.0, 0.0, 0.0, 0.0, 0.0, 0.0, 0.0, 1.625708474736631E9, 0.0, 2021-07-07 21:41:14.736
10.0, -17252.372771784398, 96556.13858176931, -187500.02235174447, -135187.53024191025, -63332.3491611897, -33181.05288518106, 19930.51408893038, 94241.1907602776, 0.138, -0.07, 1.002, 192.0, 0.0, 0.0, 0.0, 0.0, 0.0, 0.0, 0.0, 0.0, 0.0, 1.6257084747367013E9, 0.0, 2021-07-07 21:41:14.736
11.0, -17300.071394452025, 96558.95490157067, -187500.02235174447, -135197.34265772614, -63345.78255960734, -33192.63108880891, 19917.12539400165, 94232.18300726212, 0.138, -0.07, 1.002, 192.0, 0.0, 0.0, 0.0, 0.0, 0.0, 0.0, 0.0, 0.0, 0.0, 1.625708474736771E9, 0.0, 2021-07-07 21:41:14.736
12.0, -17330.58152563352, 96564.07345105094, -187500.02235174447, -135132.47789531684, -63293.83710549321, -33142.25025680665, 19967.126246348173, 94273.86901067126, 0.138, -0.07, 1.002, 192.0, 0.0, 0.0, 0.0, 0.0, 0.0, 0.0, 0.0, 0.0, 0.0, 1.625708474736827E9, 0.0, 2021-07-07 21:41:14.736
13.0, -17300.831353763504, 96561.72651788313, -187500.02235174447, -135089.9872291073, -63266.344459813175, -33115.294052993544, 19994.86476121721, 94278.62993224025, 0.138, -0.07, 1.002, 192.0, 0.0, 0.0, 0.0, 0.0, 0.0, 0.0, 0.0, 0.0, 0.0, 1.625708474736904E9, 0.0, 2021-07-07 21:41:14.736
14.0, -17282.23470237669, 96555.75860211356, -187500.02235174447, -135121.86081670056, -63311.83025977973, -33156.44361453576, 19952.03881884084, 94231.95948981757, 0.138, -0.07, 1.002, 192.0, 0.0, 0.0, 0.0, 0.0, 0.0, 0.0, 0.0, 0.0, 0.0, 1.6257084747369711E9, 0.0, 2021-07-07 21:41:14.736
15.0, -17308.90033351187, 96557.70320388117, -187500.02235174447, -135127.82873247014, -63330.67278035555, -33172.693332754774, 19936.10202504421, 94222.68351586862, 0.138, -0.07, 1.002, 192.0, 0.0, 0.0, 0.0, 0.0, 0.0, 0.0, 0.0, 0.0, 0.0, 1.625708474737039E9, 0.0, 2021-07-07 21:41:14.737
16.0, -17327.1393569874, 96564.07345105094, -187500.02235174447, -135134.26603487326, -63341.64748688311, -33184.718571271726, 19925.283780727837, 94216.20150997657, 0.138, -0.07, 1.002, 192.0, 0.0, 0.0, 0.0, 0.0, 0.0, 0.0, 0.0, 0.0, 0.0, 1.6257084747371094E9, 0.0, 2021-07-07 21:41:14.737
17.0, -17302.932417742304, 96563.24643650609, -187500.02235174447, -135157.17657293996, -63348.75534161989, -33191.71466728624, 19915.33725444523, 94213.25107970847, 0.14, -0.068, 1.002, 192.0, 4.0, 96.0, 253.0, 224.0, 31.0, 80.0, 0.0, 0.0, 0.0, 1.6257084747372112E9, 0.0, 2021-07-07 21:41:14.737
18.0, -17283.553455299552, 96558.15023877028, -187500.02235174447, -135220.0073266038, -63391.04484212933, -33230.20437123828, 19873.897120225087, 94189.33471314129, 0.14, -0.068, 1.002, 192.0, 0.0, 0.0, 0.0, 0.0, 0.0, 0.0, 0.0, 0.0, 0.0, 1.6257084747372277E9, 0.0, 2021-07-07 21:41:14.737
19.0, -17304.541743343085, 96559.02195680403, -187500.02235174447, -135267.54948706026, -63418.73865350946, -33254.32190350555, 19848.63964899059, 94191.16755618663, 0.14, -0.068, 1.002, 192.0, 0.0, 0.0, 0.0, 0.0, 0.0, 0.0, 0.0, 0.0, 0.0, 1.625708474737327E9, 0.0, 2021-07-07 21:41:14.737
20.0, -17342.91968857285, 96565.90629409628, -187500.02235174447, -135213.2123962894, -63352.86806259967, -33189.27832714061, 19914.42083292256, 94258.35690001928, 0.14, -0.068, 1.002, 192.0, 0.0, 0.0, 0.0, 0.0, 0.0, 0.0, 0.0, 0.0, 0.0, 1.6257084747373567E9, 0.0, 2021-07-07 21:41:14.737
21.0, -17320.500888884173, 96565.97334932964, -187500.02235174447, -135153.86851476057, -63301.168477674546, -33140.46211725022, 19965.874548658678, 94285.67073174367, 0.14, -0.068, 1.002, 192.0, 0.0, 0.0, 0.0, 0.0, 0.0, 0.0, 0.0, 0.0, 0.0, 1.6257084747373688E9, 0.0, 2021-07-07 21:41:14.737
22.0, -17287.84499023497, 96558.55257017048, -187500.02235174447, -135124.07363940164, -63286.50573331187, -33124.257102520125, 19984.448848301035, 94280.59688575231, 0.14, -0.068, 1.002, 192.0, 0.0, 0.0, 0.0, 0.0, 0.0, 0.0, 0.0, 0.0, 0.0, 1.6257084747373936E9, 0.0, 2021-07-07 21:41:14.737
23.0, -17328.10048199898, 96557.14441026979, -187500.02235174447, -135150.22518041436, -63325.196602964, -33160.71279772673, 19947.009676338395, 94234.14996077419, 0.14, -0.068, 1.002, 192.0, 0.0, 0.0, 0.0, 0.0, 0.0, 0.0, 0.0, 0.0, 0.0, 1.6257084747374048E9, 0.0, 2021-07-07 21:41:14.737
24.0, -17381.856427413994, 96560.38541321582, -187500.02235174447, -135165.2008491994, -63352.30926898829, -33187.51253932864, 19919.069995769263, 94216.84971056577, 0.14, -0.068, 1.002, 192.0, 0.0, 0.0, 0.0, 0.0, 0.0, 0.0, 0.0, 0.0, 0.0, 1.6257084747374165E9, 0.0, 2021-07-07 21:41:14.737
25.0, -17379.10716284599, 96559.80426785997, -187500.02235174447, -135152.907389749, -63349.13532127564, -33187.22196665072, 19919.673492869555, 94220.82832107882, 0.14, -0.068, 1.002, 192.0, 0.0, 0.0, 0.0, 0.0, 0.0, 0.0, 0.0, 0.0, 0.0, 1.625708474737428E9, 0.0, 2021-07-07 21:41:14.737
26.0, -17350.563985176563, 96556.71972712514, -187500.02235174447, -135182.18817498544, -63379.19841756802, -33214.781667564115, 19891.331480900226, 94200.7341028135, 0.14, -0.068, 1.002, 192.0, 0.0, 0.0, 0.0, 0.0, 0.0, 0.0, 0.0, 0.0, 0.0, 1.6257084747374396E9, 0.0, 2021-07-07 21:41:14.737
27.0, -17348.28410724212, 96555.64684339128, -187500.02235174447, -135241.80027744774, -63422.49374657795, -33252.37730173794, 19851.657134492056, 94180.79634675937, 0.14, -0.068, 1.0, 192.0, 4.0, 96.0, 253.0, 224.0, 31.0, 64.0, 0.0, 0.0, 0.0, 1.6257084747374508E9, 0.0, 2021-07-07 21:41:14.737
28.0, -17384.113953603977, 96561.57005567194, -187500.02235174447, -135257.3794433331, -63419.1186331652, -33247.1469935354, 19856.909794439056, 94202.72340807003, 0.14, -0.068, 1.0, 192.0, 0.0, 0.0, 0.0, 0.0, 0.0, 0.0, 0.0, 0.0, 0.0, 1.6257084747374618E9, 0.0, 2021-07-07 21:41:14.737
29.0, -17406.77862248166, 96566.35332898538, -187500.02235174447, -135205.2104717744, -63347.32482997476, -33180.248222380666, 19923.540344660323, 94268.61635072427, 0.14, -0.068, 1.0, 192.0, 0.0, 0.0, 0.0, 0.0, 0.0, 0.0, 0.0, 0.0, 0.0, 1.6257084747374732E9, 0.0, 2021-07-07 21:41:14.737
30.0, -17398.284959588644, 96562.79940161698, -187500.02235174447, -135182.70226510792, -63321.575620362244, -33155.86246917993, 19945.89208911563, 94272.3490920483, 0.14, -0.068, 1.0, 192.0, 0.0, 0.0, 0.0, 0.0, 0.0, 0.0, 0.0, 0.0, 0.0, 1.6257084747374842E9, 0.0, 2021-07-07 21:41:14.737
31.0, -17398.15084912191, 96559.26782599304, -187500.02235174447, -135224.47767549488, -63375.21980705498, -33204.924548259325, 19893.678414068036, 94220.31423095636, 0.14, -0.068, 1.0, 192.0, 0.0, 0.0, 0.0, 0.0, 0.0, 0.0, 0.0, 0.0, 0.0, 1.625708474737496E9, 0.0, 2021-07-07 21:41:14.737
32.0, -17433.220736172287, 96562.48647719462, -187500.02235174447, -135227.2269400629, -63390.016661884394, -33217.016842009645, 19881.340251128706, 94215.240384965, 0.14, -0.068, 1.0, 192.0, 0.0, 0.0, 0.0, 0.0, 0.0, 0.0, 0.0, 0.0, 0.0, 1.6257084747375088E9, 0.0, 2021-07-07 21:41:14.737
33.0, -17425.59879131303, 96564.83341036242, -187500.02235174447, -135185.29506746473, -63359.84180686973, -33186.59611780597, 19914.979626533943, 94242.73303064502, 0.14, -0.068, 1.0, 192.0, 0.0, 0.0, 0.0, 0.0, 0.0, 0.0, 0.0, 0.0, 0.0, 1.6257084747375233E9, 0.0, 2021-07-07 21:41:14.737
34.0, -17365.427895239343, 96559.06666029296, -187500.02235174447, -135156.9977589843, -63343.48032992844, -33167.95476293025, 19932.861022098186, 94249.61736793726, 0.14, -0.068, 1.0, 192.0, 0.0, 0.0, 0.0, 0.0, 0.0, 0.0, 0.0, 0.0, 0.0, 1.6257084747375357E9, 0.0, 2021-07-07 21:41:14.737
35.0, -17327.005246520668, 96552.47289567863, -187500.02235174447, -135203.89171885155, -63395.895170676136, -33215.47457164223, 19883.26250115186, 94205.11504472674, 0.14, -0.068, 1.0, 192.0, 0.0, 0.0, 0.0, 0.0, 0.0, 0.0, 0.0, 0.0, 0.0, 1.6257084747375467E9, 0.0, 2021-07-07 21:41:14.737
36.0, -17351.927441588337, 96553.1881515012, -187500.02235174447, -135226.39992551802, -63405.12644113618, -33221.0401560116, 19875.752315014877, 94212.37936167471, 0.14, -0.068, 1.0, 192.0, 0.0, 0.0, 0.0, 0.0, 0.0, 0.0, 0.0, 0.0, 0.0, 1.625708474737558E9, 0.0, 2021-07-07 21:41:14.737
37.0, -17361.2481190262, 96556.60796840287, -187500.02235174447, -135212.98887884486, -63372.179969809054, -33189.8818242409, 19905.435431651527, 94242.1965887781, 0.136, -0.07200000000000001, 1.0, 192.0, 4.0, 64.0, 253.0, 192.0, 31.0, 64.0, 0.0, 0.0, 0.0, 1.625708474737569E9, 0.0, 2021-07-07 21:41:14.737
38.0, -17322.311380185056, 96553.70224162367, -187500.02235174447, -135242.85080943714, -63381.612405969194, -33200.81182727955, 19892.672585567547, 94229.43374269412, 0.136, -0.07200000000000001, 1.0, 192.0, 0.0, 0.0, 0.0, 0.0, 0.0, 0.0, 0.0, 0.0, 0.0, 1.6257084747375977E9, 0.0, 2021-07-07 21:41:14.737
39.0, -17306.240475921688, 96548.67309912122, -187500.02235174447, -135243.6331204931, -63375.06334484379, -33190.462969596745, 19902.239132194416, 94241.12370504424, 0.136, -0.07200000000000001, 1.0, 192.0, 0.0, 0.0, 0.0, 0.0, 0.0, 0.0, 0.0, 0.0, 0.0, 1.625708474737609E9, 0.0, 2021-07-07 21:41:14.737
40.0, -17346.093636285503, 96551.86939857835, -187500.02235174447, -135213.10063756714, -63354.54444343382, -33168.24533560817, 19926.22255399496, 94256.30053952939, 0.136, -0.07200000000000001, 1.0, 192.0, 0.0, 0.0, 0.0, 0.0, 0.0, 0.0, 0.0, 0.0, 0.0, 1.6257084747376194E9, 0.0, 2021-07-07 21:41:14.737
41.0, -17378.950700634803, 96559.13371552632, -187500.02235174447, -135198.63905890455, -63349.895280587116, -33166.2783820961, 19931.922248831066, 94247.493952214, 0.136, -0.07200000000000001, 1.0, 192.0, 0.0, 0.0, 0.0, 0.0, 0.0, 0.0, 0.0, 0.0, 0.0, 1.625708474737631E9, 0.0, 2021-07-07 21:41:14.737
42.0, -17336.34827570299, 96560.89950333828, -187500.02235174447, -135198.84022460465, -63360.579414436754, -33175.95668744525, 19923.361530704682, 94233.72527762954, 0.136, -0.07200000000000001, 1.0, 192.0, 0.0, 0.0, 0.0, 0.0, 0.0, 0.0, 0.0, 0.0, 0.0, 1.625708474737644E9, 0.0, 2021-07-07 21:41:14.737
43.0, -17289.119039668924, 96557.41263120326, -187500.02235174447, -135224.99176561736, -63397.92917942157, -33211.04892624008, 19888.895140754597, 94202.16461445864, 0.136, -0.07200000000000001, 1.0, 192.0, 0.0, 0.0, 0.0, 0.0, 0.0, 0.0, 0.0, 0.0, 0.0, 1.6257084747376585E9, 0.0, 2021-07-07 21:41:14.737
44.0, -17309.66029282335, 96560.60893066037, -187500.02235174447, -135275.43965285298, -63454.79201731587, -33265.02838909964, 19835.36271278414, 94171.83329723279, 0.136, -0.07200000000000001, 1.0, 192.0, 0.0, 0.0, 0.0, 0.0, 0.0, 0.0, 0.0, 0.0, 0.0, 1.6257084747376702E9, 0.0, 2021-07-07 21:41:14.737
45.0, -17339.589278649008, 96569.10259355338, -187500.02235174447, -135261.20159163495, -63427.99227571396, -33239.27917948713, 19861.380143330116, 94211.79821631887, 0.136, -0.07200000000000001, 1.0, 192.0, 0.0, 0.0, 0.0, 0.0, 0.0, 0.0, 0.0, 0.0, 0.0, 1.6257084747376812E9, 0.0, 2021-07-07 21:41:14.737
46.0, -17323.33956043, 96571.9412650992, -187500.02235174447, -135233.5748354882, -63378.617272212185, -33193.323992887024, 19908.229399708438, 94248.43272548112, 0.136, -0.07200000000000001, 1.0, 192.0, 0.0, 0.0, 0.0, 0.0, 0.0, 0.0, 0.0, 0.0, 0.0, 1.625708474737692E9, 0.0, 2021-07-07 21:41:14.737
47.0, -17292.94118797078, 96568.09676505289, -187500.02235174447, -135214.68761142346, -63342.72037061696, -33158.83525119248, 19943.589859436735, 94269.8009931804, 0.136, -0.07, 0.998, 192.0, 4.0, 64.0, 253.0, 208.0, 31.0, 48.0, 0.0, 0.0, 0.0, 1.6257084747377028E9, 0.0, 2021-07-07 21:41:14.737
48.0, -17309.101499211967, 96567.98500633062, -187500.02235174447, -135196.69445713694, -63326.22478320894, -33141.53500098408, 19961.13597883415, 94267.40935652368, 0.136, -0.07, 0.998, 192.0, 0.0, 0.0, 0.0, 0.0, 0.0, 0.0, 0.0, 0.0, 0.0, 1.6257084747377148E9, 0.0, 2021-07-07 21:41:14.737
49.0, -17348.172348519845, 96573.37177674434, -187500.02235174447, -135190.83830008964, -63334.40552167959, -33149.84984992145, 19951.457673485, 94247.4492487251, 0.136, -0.07, 0.998, 192.0, 0.0, 0.0, 0.0, 0.0, 0.0, 0.0, 0.0, 0.0, 0.0, 1.625708474737726E9, 0.0, 2021-07-07 21:41:14.737
50.0, -17335.94594430279, 96574.35525350038, -187500.02235174447, -135181.13764299604, -63337.04302752532, -33155.81776569102, 19946.98732459394, 94238.21797826505, 0.136, -0.07, 0.998, 192.0, 0.0, 0.0, 0.0, 0.0, 0.0, 0.0, 0.0, 0.0, 0.0, 1.6257084747377372E9, 0.0, 2021-07-07 21:41:14.737
51.0, -17296.47276359472, 96568.45439296418, -187500.02235174447, -135197.70028563743, -63365.42974298356, -33181.94695495927, 19919.114699258174, 94214.97216403153, 0.136, -0.07, 0.998, 192.0, 0.0, 0.0, 0.0, 0.0, 0.0, 0.0, 0.0, 0.0, 0.0, 1.6257084747377503E9, 0.0, 2021-07-07 21:41:14.737
52.0, -17315.80702254856, 96565.72748014063, -187500.02235174447, -135221.0578585932, -63399.29263583334, -33212.3900309074, 19889.7445070439, 94198.1860039456, 0.136, -0.07, 0.998, 192.0, 0.0, 0.0, 0.0, 0.0, 0.0, 0.0, 0.0, 0.0, 0.0, 1.6257084747377615E9, 0.0, 2021-07-07 21:41:14.737
53.0, -17365.71846791726, 96569.21435227565, -187500.02235174447, -135224.25415805032, -63396.49866777643, -33209.66311808385, 19893.32078615675, 94214.14514948669, 0.136, -0.07, 0.998, 192.0, 0.0, 0.0, 0.0, 0.0, 0.0, 0.0, 0.0, 0.0, 0.0, 1.6257084747377727E9, 0.0, 2021-07-07 21:41:14.737
54.0, -17356.95658409078, 96571.8965616103, -187500.02235174447, -135204.67402990747, -63357.47252195746, -33173.676809510805, 19929.240039496428, 94244.0964870568, 0.136, -0.07, 0.998, 192.0, 0.0, 0.0, 0.0, 0.0, 0.0, 0.0, 0.0, 0.0, 0.0, 1.6257084747377849E9, 0.0, 2021-07-07 21:41:14.737
55.0, -17312.43190913581, 96566.66625340775, -187500.02235174447, -135222.5107219828, -63354.83501611174, -33170.4805100537, 19931.497565686415, 94241.41427772216, 0.136, -0.07, 0.998, 192.0, 0.0, 0.0, 0.0, 0.0, 0.0, 0.0, 0.0, 0.0, 0.0, 1.625708474737796E9, 0.0, 2021-07-07 21:41:14.737
56.0, -17308.274484667123, 96564.56518942895, -187500.02235174447, -135229.23859706387, -63348.911803831084, -33162.99267566117, 19937.957219834, 94244.92350160165, 0.136, -0.07, 0.998, 192.0, 0.0, 0.0, 0.0, 0.0, 0.0, 0.0, 0.0, 0.0, 0.0, 1.6257084747378073E9, 0.0, 2021-07-07 21:41:14.737
57.0, -17351.927441588337, 96569.12494529784, -187500.02235174447, -135223.6059574611, -63349.69411488702, -33163.327951827996, 19939.208917523494, 94243.80591437889, 0.136, -0.07, 1.002, 192.0, 4.0, 64.0, 253.0, 208.0, 31.0, 80.0, 0.0, 0.0, 0.0, 1.6257084747378192E9, 0.0, 2021-07-07 21:41:14.737
58.0, -17315.09176672599, 96574.75758490058, -187500.02235174447, -135194.6604483915, -63331.432739667034, -33147.23469582018, 19957.157368321106, 94252.92542611665, 0.136, -0.07, 1.002, 192.0, 0.0, 0.0, 0.0, 0.0, 0.0, 0.0, 0.0, 0.0, 0.0, 1.6257084747378309E9, 0.0, 2021-07-07 21:41:14.737
59.0, -17166.11738993137, 96573.48353546663, -187500.02235174447, -135165.78199455523, -63312.970198746945, -33130.51559096761, 19974.256452829417, 94259.47448724204, 0.136, -0.07, 1.002, 192.0, 0.0, 0.0, 0.0, 0.0, 0.0, 0.0, 0.0, 0.0, 0.0, 1.6257084747378428E9, 0.0, 2021-07-07 21:41:14.737
60.0, -17006.4141757982, 96569.68373890923, -187500.02235174447, -135158.02593922926, -63317.55230636029, -33133.04133809106, 19970.23313882746, 94248.27626326995, 0.136, -0.07, 1.002, 192.0, 0.0, 0.0, 0.0, 0.0, 0.0, 0.0, 0.0, 0.0, 0.0, 1.6257084747378547E9, 0.0, 2021-07-07 21:41:14.737
61.0, -16979.68148942965, 96571.9412650992, -187500.02235174447, -135194.54868966923, -63367.866083129185, -33180.29292586958, 19923.115661515672, 94208.2889924394, 0.136, -0.07, 1.002, 192.0, 0.0, 0.0, 0.0, 0.0, 0.0, 0.0, 0.0, 0.0, 0.0, 1.6257084747378669E9, 0.0, 2021-07-07 21:41:14.737
62.0, -17151.58875603542, 96576.61277969036, -187500.02235174447, -135247.4776205394, -63421.71143552202, -33234.853534084985, 19869.31501261175, 94172.03446293289, 0.136, -0.07, 1.002, 192.0, 0.0, 0.0, 0.0, 0.0, 0.0, 0.0, 0.0, 0.0, 0.0, 1.6257084747378778E9, 0.0, 2021-07-07 21:41:14.737
63.0, -17359.169406791854, 96575.83046863443, -187500.02235174447, -135277.58542032068, -63434.31781939481, -33247.48226970223, 19855.233413604907, 94185.75843402845, 0.136, -0.07, 1.002, 192.0, 0.0, 0.0, 0.0, 0.0, 0.0, 0.0, 0.0, 0.0, 0.0, 1.6257084747378883E9, 0.0, 2021-07-07 21:41:14.737
64.0, -17704.50385862635, 96571.6953959102, -187500.02235174447, -135294.21511819543, -63430.60742981523, -33239.9944353097, 19860.687239252, 94204.91387902664, 0.136, -0.07, 1.002, 192.0, 0.0, 0.0, 0.0, 0.0, 0.0, 0.0, 0.0, 0.0, 0.0, 1.6257084747379048E9, 0.0, 2021-07-07 21:41:14.737
65.0, -18062.824673989377, 96575.02580583404, -187500.02235174447, -135319.38318245212, -63436.016551973415, -33242.743699877705, 19855.07695139372, 94209.96537327355, 0.136, -0.07, 1.002, 192.0, 0.0, 0.0, 0.0, 0.0, 0.0, 0.0, 0.0, 0.0, 0.0, 1.625708474737917E9, 0.0, 2021-07-07 21:41:14.737
66.0, -18044.540947024936, 96582.2454192931, -187500.02235174447, -135288.3813128926, -63392.87768517467, -33202.37644939142, 19894.97481524644, 94249.46090572607, 0.136, -0.07, 1.002, 192.0, 0.0, 0.0, 0.0, 0.0, 0.0, 0.0, 0.0, 0.0, 0.0, 1.625708474737928E9, 0.0, 2021-07-07 21:41:14.737
67.0, -17761.009068609364, 96583.18419256022, -187500.02235174447, -135225.14822782853, -63335.36664669117, -33149.11224235442, 19951.10004557372, 94281.51330727497, 0.134, -0.066, 0.996, 192.0, 4.0, 48.0, 253.0, 240.0, 31.0, 32.0, 0.0, 0.0, 0.0, 1.62570847473794E9, 0.0, 2021-07-07 21:41:14.737
68.0, -17600.85881958709, 96577.28333202403, -187500.02235174447, -135234.08892561067, -63357.27135625737, -33169.2288123642, 19930.737606374933, 94245.72816440204, 0.134, -0.066, 0.996, 192.0, 0.0, 0.0, 0.0, 0.0, 0.0, 0.0, 0.0, 0.0, 0.0, 1.6257084747379515E9, 0.0, 2021-07-07 21:41:14.737
69.0, -17637.53803223825, 96577.97623610214, -187500.02235174447, -135242.00144314783, -63376.1585803221, -33185.61264104994, 19913.191486977517, 94228.96435606055, 0.134, -0.066, 0.996, 192.0, 0.0, 0.0, 0.0, 0.0, 0.0, 0.0, 0.0, 0.0, 0.0, 1.6257084747379632E9, 0.0, 2021-07-07 21:41:14.737
70.0, -17546.879356727524, 96584.547648972, -187500.02235174447, -135215.7157916684, -63361.853463870706, -33170.34639958697, 19927.138975517628, 94242.6436236672, 0.134, -0.066, 0.996, 192.0, 0.0, 0.0, 0.0, 0.0, 0.0, 0.0, 0.0, 0.0, 0.0, 1.6257084747379766E9, 0.0, 2021-07-07 21:41:14.737
71.0, -17332.794348334595, 96584.32413152745, -187500.02235174447, -135200.49425369434, -63360.31119350329, -33167.395969318866, 19928.03304529584, 94238.0391643094, 0.134, -0.066, 0.996, 192.0, 0.0, 0.0, 0.0, 0.0, 0.0, 0.0, 0.0, 0.0, 0.0, 1.6257084747379875E9, 0.0, 2021-07-07 21:41:14.737
72.0, -17178.902587759803, 96581.50781172607, -187500.02235174447, -135227.18223657398, -63395.29167357584, -33200.07421971252, 19895.086573968718, 94207.59608836129, 0.134, -0.066, 0.996, 192.0, 0.0, 0.0, 0.0, 0.0, 0.0, 0.0, 0.0, 0.0, 0.0, 1.6257084747379987E9, 0.0, 2021-07-07 21:41:14.737
73.0, -17171.21358766718, 96583.38535826032, -187500.02235174447, -135285.09560645767, -63442.00681948743, -33243.794231867105, 19850.293678080285, 94182.69624503807, 0.134, -0.066, 0.996, 192.0, 0.0, 0.0, 0.0, 0.0, 0.0, 0.0, 0.0, 0.0, 0.0, 1.6257084747380104E9, 0.0, 2021-07-07 21:41:14.738
74.0, -17192.715965833184, 96590.6496752083, -187500.02235174447, -135273.96443771894, -63409.75325223843, -33212.94882451878, 19880.714402283957, 94226.25979498147, 0.134, -0.066, 0.996, 192.0, 0.0, 0.0, 0.0, 0.0, 0.0, 0.0, 0.0, 0.0, 0.0, 1.625708474738022E9, 0.0, 2021-07-07 21:41:14.738
75.0, -17228.702274406227, 96593.66716070977, -187500.02235174447, -135260.08400441217, -63373.74459192093, -33180.69525726977, 19911.336292187727, 94247.94098710311, 0.134, -0.066, 0.996, 192.0, 0.0, 0.0, 0.0, 0.0, 0.0, 0.0, 0.0, 0.0, 0.0, 1.6257084747380326E9, 0.0, 2021-07-07 21:41:14.738
76.0, -17267.996641158657, 96588.50390774058, -187500.02235174447, -135270.63402779508, -63368.53663546284, -33176.49312931218, 19913.70557709999, 94243.18006553414, 0.134, -0.068, 0.996, 192.0, 4.0, 48.0, 253.0, 224.0, 31.0, 32.0, 0.0, 0.0, 0.0, 1.6257084747380445E9, 0.0, 2021-07-07 21:41:14.738
77.0, -17315.42704289282, 96584.9946838611, -187500.02235174447, -135277.8312895097, -63381.07596410227, -33187.82546375102, 19903.021443250353, 94227.44443743759, 0.134, -0.068, 0.996, 192.0, 0.0, 0.0, 0.0, 0.0, 0.0, 0.0, 0.0, 0.0, 0.0, 1.6257084747380562E9, 0.0, 2021-07-07 21:41:14.738
78.0, -17346.80889210807, 96590.51556474157, -187500.02235174447, -135246.96353041692, -63361.18291153704, -33167.68654199679, 19924.501469671904, 94241.83896086681, 0.134, -0.068, 0.996, 192.0, 0.0, 0.0, 0.0, 0.0, 0.0, 0.0, 0.0, 0.0, 0.0, 1.625708474738072E9, 0.0, 2021-07-07 21:41:14.738
79.0, -17332.079092512024, 96596.72934970014, -187500.02235174447, -135233.39602153254, -63356.667859157074, -33165.94310592927, 19925.775519105857, 94235.8933968417, 0.134, -0.068, 0.996, 192.0, 0.0, 0.0, 0.0, 0.0, 0.0, 0.0, 0.0, 0.0, 0.0, 1.625708474738086E9, 0.0, 2021-07-07 21:41:14.738
80.0, -17295.288121138587, 96596.95286714469, -187500.02235174447, -135220.25319579281, -63352.86806259967, -33161.875088438406, 19927.697769129012, 94236.16161777516, 0.134, -0.068, 0.996, 192.0, 0.0, 0.0, 0.0, 0.0, 0.0, 0.0, 0.0, 0.0, 0.0, 1.6257084747381003E9, 0.0, 2021-07-07 21:41:14.738
81.0, -17285.095725666968, 96594.04714036551, -187500.02235174447, -135244.9742251604, -63388.139115350146, -33191.9828882197, 19894.527780357337, 94205.51737612694, 0.134, -0.068, 0.996, 192.0, 0.0, 0.0, 0.0, 0.0, 0.0, 0.0, 0.0, 0.0, 0.0, 1.6257084747381153E9, 0.0, 2021-07-07 21:41:14.738
82.0, -17316.030539993113, 96595.16472758827, -187500.02235174447, -135273.15977491855, -63415.967037197006, -33217.642690854394, 19867.437466077503, 94191.27931490891, 0.134, -0.068, 0.996, 192.0, 0.0, 0.0, 0.0, 0.0, 0.0, 0.0, 0.0, 0.0, 0.0, 1.6257084747381284E9, 0.0, 2021-07-07 21:41:14.738
83.0, -17317.66221733835, 96599.59037299042, -187500.02235174447, -135275.05967319725, -63399.47144978899, -33203.38227789191, 19881.340251128706, 94214.25690820896, 0.134, -0.068, 0.996, 192.0, 0.0, 0.0, 0.0, 0.0, 0.0, 0.0, 0.0, 0.0, 0.0, 1.6257084747381396E9, 0.0, 2021-07-07 21:41:14.738
84.0, -17276.825580218505, 96599.56802124597, -187500.02235174447, -135281.09464420017, -63385.50160950442, -33190.82059750803, 19893.27608266784, 94228.60672814927, 0.134, -0.068, 0.996, 192.0, 0.0, 0.0, 0.0, 0.0, 0.0, 0.0, 0.0, 0.0, 0.0, 1.6257084747381513E9, 0.0, 2021-07-07 21:41:14.738
85.0, -17266.387315557877, 96596.81875667797, -187500.02235174447, -135314.55520564975, -63400.74549922294, -33203.47168486973, 19880.043849950296, 94216.67089661013, 0.134, -0.068, 0.996, 192.0, 0.0, 0.0, 0.0, 0.0, 0.0, 0.0, 0.0, 0.0, 0.0, 1.6257084747381628E9, 0.0, 2021-07-07 21:41:14.738
86.0, -17312.1860399468, 96599.63507647933, -187500.02235174447, -135326.26751974435, -63410.49085980545, -33210.6912983288, 19873.070105680243, 94216.78265533241, 0.138, -0.07200000000000001, 0.996, 192.0, 4.0, 80.0, 253.0, 192.0, 31.0, 32.0, 0.0, 0.0, 0.0, 1.6257084747381787E9, 0.0, 2021-07-07 21:41:14.738
87.0, -17339.276354226633, 96603.546631759, -187500.02235174447, -135293.45515888397, -63388.74261245044, -33191.24528065268, 19893.79017279031, 94236.02750730843, 0.138, -0.07200000000000001, 0.996, 192.0, 0.0, 0.0, 0.0, 0.0, 0.0, 0.0, 0.0, 0.0, 0.0, 1.62570847473819E9, 0.0, 2021-07-07 21:41:14.738
88.0, -17302.463031108742, 96602.2502305806, -187500.02235174447, -135267.03539693778, -63373.029336098356, -33176.49312931218, 19907.6482543526, 94243.33652774531, 0.138, -0.07200000000000001, 0.996, 192.0, 0.0, 0.0, 0.0, 0.0, 0.0, 0.0, 0.0, 0.0, 0.0, 1.6257084747382164E9, 0.0, 2021-07-07 21:41:14.738
89.0, -17278.859588963936, 96598.62924797884, -187500.02235174447, -135256.3736148326, -63375.37626926616, -33176.35901884544, 19908.810545064276, 94234.14996077419, 0.138, -0.07200000000000001, 0.996, 192.0, 0.0, 0.0, 0.0, 0.0, 0.0, 0.0, 0.0, 0.0, 0.0, 1.6257084747382295E9, 0.0, 2021-07-07 21:41:14.738
90.0, -17309.41442363434, 96602.38434104733, -187500.02235174447, -135266.11897541513, -63397.86212418821, -33197.436713866795, 19889.386879132617, 94214.34631518678, 0.138, -0.07200000000000001, 0.996, 192.0, 0.0, 0.0, 0.0, 0.0, 0.0, 0.0, 0.0, 0.0, 0.0, 1.6257084747382412E9, 0.0, 2021-07-07 21:41:14.738
91.0, -17331.319133200544, 96609.17927136175, -187500.02235174447, -135284.89444075758, -63427.23231640248, -33225.80107758058, 19862.363620086147, 94194.81089053284, 0.138, -0.07200000000000001, 0.996, 192.0, 0.0, 0.0, 0.0, 0.0, 0.0, 0.0, 0.0, 0.0, 0.0, 1.6257084747382524E9, 0.0, 2021-07-07 21:41:14.738
92.0, -17299.51260084064, 96610.67683824025, -187500.02235174447, -135282.54750758977, -63420.280923876875, -33221.59894962299, 19869.06914342274, 94206.65731509415, 0.138, -0.07200000000000001, 0.996, 192.0, 0.0, 0.0, 0.0, 0.0, 0.0, 0.0, 0.0, 0.0, 0.0, 1.6257084747382643E9, 0.0, 2021-07-07 21:41:14.738
93.0, -17268.26486209212, 96604.86538468188, -187500.02235174447, -135317.5950428957, -63436.66475256262, -33238.407461453375, 19852.305335081262, 94199.59416384628, 0.138, -0.07200000000000001, 0.996, 192.0, 0.0, 0.0, 0.0, 0.0, 0.0, 0.0, 0.0, 0.0, 0.0, 1.6257084747382765E9, 0.0, 2021-07-07 21:41:14.738
94.0, -17293.723499026717, 96602.60785849189, -187500.02235174447, -135347.61343569917, -63446.23129918949, -33246.25292375719, 19844.16930009953, 94204.46684413754, 0.138, -0.07200000000000001, 0.996, 192.0, 0.0, 0.0, 0.0, 0.0, 0.0, 0.0, 0.0, 0.0, 0.0, 1.6257084747382884E9, 0.0, 2021-07-07 21:41:14.738
95.0, -17332.01203727866, 96605.55828875999, -187500.02235174447, -135353.42488925756, -63436.731807795986, -33235.837010841016, 19855.434579305005, 94218.72725710002, 0.138, -0.07200000000000001, 0.996, 192.0, 0.0, 0.0, 0.0, 0.0, 0.0, 0.0, 0.0, 0.0, 0.0, 1.6257084747382996E9, 0.0, 2021-07-07 21:41:14.738
96.0, -17314.197696947776, 96607.21231784968, -187500.02235174447, -135356.93411313702, -63443.05735147683, -33242.9448655778, 19849.98075365791, 94217.09557975478, 0.136, -0.07, 0.992, 192.0, 4.0, 64.0, 253.0, 208.0, 31.0, 0.0, 0.0, 0.0, 0.0, 1.625708474738311E9, 0.0, 2021-07-07 21:41:14.738
97.0, -17278.971347686213, 96602.63021023634, -187500.02235174447, -135310.3977811811, -63406.10991789221, -33207.5397023606, 19888.55986458777, 94249.37149874825, 0.136, -0.07, 0.992, 192.0, 0.0, 0.0, 0.0, 0.0, 0.0, 0.0, 0.0, 0.0, 0.0, 1.625708474738322E9, 0.0, 2021-07-07 21:41:14.738
98.0, -17299.244379907177, 96599.12098635687, -187500.02235174447, -135330.8943308466, -63438.98933398597, -33239.033310298124, 19857.60269851717, 94209.60774536226, 0.136, -0.07, 0.992, 192.0, 0.0, 0.0, 0.0, 0.0, 0.0, 0.0, 0.0, 0.0, 0.0, 1.625708474738338E9, 0.0, 2021-07-07 21:41:14.738
99.0, -17334.135453001913, 96600.66325672428, -187500.02235174447, -135358.31992129327, -63478.104886782756, -33277.59006948353, 19819.984712598885, 94184.84201250577, 0.136, -0.07, 0.992, 192.0, 0.0, 0.0, 0.0, 0.0, 0.0, 0.0, 0.0, 0.0, 0.0, 1.6257084747383692E9, 0.0, 2021-07-07 21:41:14.738
100.0, -17317.483403382706, 96600.9985328911, -187500.02235174447, -135338.96331059496, -63465.587909887785, -33268.42585425686, 19833.663980205536, 94203.86334703724, 0.136, -0.07, 0.992, 192.0, 0.0, 0.0, 0.0, 0.0, 0.0, 0.0, 0.0, 0.0, 0.0, 1.6257084747383876E9, 0.0, 2021-07-07 21:41:14.738
101.0, -17273.137542383378, 96596.23761132213, -187500.02235174447, -135351.23441830094, -63473.41102044714, -33276.29366830512, 19827.651360947057, 94204.31038192635, 0.136, -0.07, 0.992, 192.0, 0.0, 0.0, 0.0, 0.0, 0.0, 0.0, 0.0, 0.0, 0.0, 1.6257084747383988E9, 0.0, 2021-07-07 21:41:14.738
102.0, -17273.60692901694, 96595.27648631054, -187500.02235174447, -135360.957427139, -63463.10686625325, -33262.65910418738, 19842.336457054193, 94221.92355655713, 0.136, -0.07, 0.992, 192.0, 0.0, 0.0, 0.0, 0.0, 0.0, 0.0, 0.0, 0.0, 0.0, 1.6257084747384095E9, 0.0, 2021-07-07 21:41:14.738
103.0, -17305.927551499313, 96599.72448345715, -187500.02235174447, -135408.63369806216, -63491.15830554465, -33287.8048166996, 19815.49201196337, 94198.99066674599, 0.136, -0.07, 0.992, 192.0, 0.0, 0.0, 0.0, 0.0, 0.0, 0.0, 0.0, 0.0, 0.0, 1.6257084747384207E9, 0.0, 2021-07-07 21:41:14.738
104.0, -17285.967443700727, 96601.42321603575, -187500.02235174447, -135372.66974123358, -63439.101092708246, -33239.1450690204, 19862.69889625298, 94244.92350160165, 0.136, -0.07, 0.992, 192.0, 0.0, 0.0, 0.0, 0.0, 0.0, 0.0, 0.0, 0.0, 0.0, 1.625708474738432E9, 0.0, 2021-07-07 21:41:14.738
105.0, -17239.431111744776, 96595.83527992193, -187500.02235174447, -135353.96133112448, -63422.091415177754, -33226.22576072523, 19875.528797570325, 94243.53769344541, 0.136, -0.07, 0.992, 192.0, 0.0, 0.0, 0.0, 0.0, 0.0, 0.0, 0.0, 0.0, 0.0, 1.6257084747384431E9, 0.0, 2021-07-07 21:41:14.738
106.0, -17235.69837042074, 96591.63315196433, -187500.02235174447, -135354.27425554686, -63434.675447306094, -33236.172287007845, 19866.83396897721, 94229.61255664976, 0.134, -0.068, 0.99, 192.0, 4.0, 48.0, 253.0, 224.0, 30.0, 240.0, 0.0, 0.0, 0.0, 1.6257084747384539E9, 0.0, 2021-07-07 21:41:14.738
107.0, -17274.255129606143, 96594.47182351016, -187500.02235174447, -135352.53081947935, -63445.247822433455, -33245.135336534426, 19858.854396206665, 94218.43668442211, 0.134, -0.068, 0.99, 192.0, 0.0, 0.0, 0.0, 0.0, 0.0, 0.0, 0.0, 0.0, 0.0, 1.6257084747384727E9, 0.0, 2021-07-07 21:41:14.738
108.0, -17279.59719653096, 96598.38337878983, -187500.02235174447, -135329.10619129016, -63433.915487994615, -33233.33361546202, 19870.41024809006, 94222.52705365742, 0.134, -0.068, 0.99, 192.0, 0.0, 0.0, 0.0, 0.0, 0.0, 0.0, 0.0, 0.0, 0.0, 1.6257084747384841E9, 0.0, 2021-07-07 21:41:14.738
109.0, -17239.811091400516, 96594.67298921026, -187500.02235174447, -135332.01191806936, -63448.533528868385, -33247.012883068666, 19856.574518272224, 94207.77490231692, 0.134, -0.068, 0.99, 192.0, 0.0, 0.0, 0.0, 0.0, 0.0, 0.0, 0.0, 0.0, 0.0, 1.625708474738495E9, 0.0, 2021-07-07 21:41:14.738
110.0, -17217.593457411942, 96590.62732346384, -187500.02235174447, -135358.81165967128, -63476.070878037324, -33273.56675548157, 19829.953590625955, 94189.71469279703, 0.134, -0.068, 0.99, 192.0, 0.0, 0.0, 0.0, 0.0, 0.0, 0.0, 0.0, 0.0, 0.0, 1.6257084747385066E9, 0.0, 2021-07-07 21:41:14.738
111.0, -17245.980172870182, 96593.44364326521, -187500.02235174447, -135377.07303489125, -63477.65785189365, -33273.34323803702, 19829.461852247936, 94200.15295745766, 0.134, -0.068, 0.99, 192.0, 0.0, 0.0, 0.0, 0.0, 0.0, 0.0, 0.0, 0.0, 0.0, 1.6257084747385185E9, 0.0, 2021-07-07 21:41:14.738
112.0, -17265.627356246398, 96598.42808227874, -187500.02235174447, -135347.88165663264, -63427.209964658025, -33225.063470013556, 19879.865035994655, 94242.01777482245, 0.134, -0.068, 0.99, 192.0, 0.0, 0.0, 0.0, 0.0, 0.0, 0.0, 0.0, 0.0, 0.0, 1.6257084747385297E9, 0.0, 2021-07-07 21:41:14.738
113.0, -17217.012312056104, 96595.65646596628, -187500.02235174447, -135366.18773534152, -63423.67838903408, -33224.75054559118, 19879.820332505744, 94231.98184156202, 0.134, -0.068, 0.99, 192.0, 0.0, 0.0, 0.0, 0.0, 0.0, 0.0, 0.0, 0.0, 0.0, 1.6257084747385406E9, 0.0, 2021-07-07 21:41:14.738
114.0, -17184.40111689581, 96591.54374498651, -187500.02235174447, -135332.68247040303, -63384.49578100393, -33187.7807602621, 19917.5500771463, 94258.06632734137, 0.134, -0.068, 0.99, 192.0, 0.0, 0.0, 0.0, 0.0, 0.0, 0.0, 0.0, 0.0, 0.0, 1.6257084747385528E9, 0.0, 2021-07-07 21:41:14.738
115.0, -17209.83740208595, 96593.68951245422, -187500.02235174447, -135359.8398399162, -63421.6667320331, -33225.4434496693, 19880.31207088376, 94213.02756226392, 0.134, -0.068, 0.99, 192.0, 0.0, 0.0, 0.0, 0.0, 0.0, 0.0, 0.0, 0.0, 0.0, 1.6257084747385635E9, 0.0, 2021-07-07 21:41:14.738
116.0, -17235.005466342624, 96599.2998003125, -187500.02235174447, -135358.56579048227, -63430.629781559684, -33236.99930155269, 19868.82327423373, 94208.31134418385, 0.13, -0.07, 0.998, 192.0, 4.0, 16.0, 253.0, 208.0, 31.0, 48.0, 0.0, 0.0, 0.0, 1.6257084747385747E9, 0.0, 2021-07-07 21:41:14.738
117.0, -17213.2125154987, 96599.52331775705, -187500.02235174447, -135306.01683926783, -63389.63668222865, -33197.61552782244, 19908.229399708438, 94240.63196666623, 0.13, -0.07, 0.998, 192.0, 0.0, 0.0, 0.0, 0.0, 0.0, 0.0, 0.0, 0.0, 0.0, 1.6257084747385855E9, 0.0, 2021-07-07 21:41:14.738
118.0, -17179.26021567109, 96594.20360257669, -187500.02235174447, -135332.74952563638, -63429.46749084801, -33232.84187708401, 19870.544358556792, 94201.44935863608, 0.13, -0.07, 0.998, 192.0, 0.0, 0.0, 0.0, 0.0, 0.0, 0.0, 0.0, 0.0, 0.0, 1.625708474738596E9, 0.0, 2021-07-07 21:41:14.738
119.0, -17202.997768282625, 96594.36006478788, -187500.02235174447, -135358.3869765266, -63465.07381976531, -33265.16249956638, 19837.128500596107, 94180.39401535917, 0.13, -0.07, 0.998, 192.0, 0.0, 0.0, 0.0, 0.0, 0.0, 0.0, 0.0, 0.0, 0.0, 1.6257084747386067E9, 0.0, 2021-07-07 21:41:14.738
120.0, -17240.97338211219, 96598.00339913409, -187500.02235174447, -135407.29259339484, -63507.16215457465, -33307.09437216454, 19796.783601854277, 94155.78474471388, 0.13, -0.07, 0.998, 192.0, 0.0, 0.0, 0.0, 0.0, 0.0, 0.0, 0.0, 0.0, 0.0, 1.625708474738618E9, 0.0, 2021-07-07 21:41:14.738
121.0, -17246.181338570277, 96598.02575087854, -187500.02235174447, -135399.53653806885, -63478.97660481651, -33279.42291252886, 19825.97498011291, 94196.35316090027, 0.13, -0.07, 0.998, 192.0, 0.0, 0.0, 0.0, 0.0, 0.0, 0.0, 0.0, 0.0, 0.0, 1.6257084752164652E9, 0.0, 2021-07-07 21:41:15.216
122.0, -17248.08123684898, 96592.86249790937, -187500.02235174447, -135379.464671548, -63437.73763629647, -33236.61932189695, 19867.862149222154, 94232.18300726212, 0.13, -0.07, 0.998, 192.0, 0.0, 0.0, 0.0, 0.0, 0.0, 0.0, 0.0, 0.0, 0.0, 1.625708475216545E9, 0.0, 2021-07-07 21:41:15.216
123.0, -17288.04615593507, 96590.96259963067, -187500.02235174447, -135372.69209297802, -63414.625932529685, -33212.45708614076, 19890.437411122013, 94244.18589403461, 0.13, -0.07, 0.998, 192.0, 0.0, 0.0, 0.0, 0.0, 0.0, 0.0, 0.0, 0.0, 0.0, 1.625708475216611E9, 0.0, 2021-07-07 21:41:15.216
124.0, -17321.95375227377, 96596.23761132213, -187500.02235174447, -135344.30537751978, -63389.74844095093, -33188.630126551405, 19913.70557709999, 94249.48325747052, 0.13, -0.07, 0.998, 192.0, 0.0, 0.0, 0.0, 0.0, 0.0, 0.0, 0.0, 0.0, 0.0, 1.6257084752166758E9, 0.0, 2021-07-07 21:41:15.216
125.0, -17304.340577642986, 96598.11515785637, -187500.02235174447, -135327.83214185623, -63386.55214149382, -33186.260841639145, 19914.64435036711, 94233.21118750706, 0.13, -0.07, 0.998, 192.0, 0.0, 0.0, 0.0, 0.0, 0.0, 0.0, 0.0, 0.0, 0.0, 1.6257084752167416E9, 0.0, 2021-07-07 21:41:15.216
126.0, -17254.160911340823, 96595.38824503282, -187500.02235174447, -135352.37435726816, -63425.4218251016, -33222.537722890105, 19877.674565038036, 94196.71078881154, 0.132, -0.07, 1.0, 192.0, 4.0, 32.0, 253.0, 208.0, 31.0, 64.0, 0.0, 0.0, 0.0, 1.6257084752168155E9, 0.0, 2021-07-07 21:41:15.216
127.0, -17254.36207704092, 96593.6001054764, -187500.02235174447, -135361.5385724948, -63448.68999107957, -33242.43077545533, 19858.943803184487, 94186.49604159547, 0.132, -0.07, 1.0, 192.0, 0.0, 0.0, 0.0, 0.0, 0.0, 0.0, 0.0, 0.0, 0.0, 1.6257084752168815E9, 0.0, 2021-07-07 21:41:15.216
128.0, -17304.60879857645, 96598.00339913409, -187500.02235174447, -135338.22570302794, -63438.0729124633, -33230.04790902709, 19871.952518457478, 94205.24915519348, 0.132, -0.07, 1.0, 192.0, 0.0, 0.0, 0.0, 0.0, 0.0, 0.0, 0.0, 0.0, 0.0, 1.6257084752169611E9, 0.0, 2021-07-07 21:41:15.216
129.0, -17321.417310406843, 96600.64090497982, -187500.02235174447, -135324.21115925445, -63432.84260426076, -33225.30933920257, 19877.02636444883, 94207.59608836129, 0.132, -0.07, 1.0, 192.0, 0.0, 0.0, 0.0, 0.0, 0.0, 0.0, 0.0, 0.0, 0.0, 1.6257084752170277E9, 0.0, 2021-07-07 21:41:15.217
130.0, -17301.81483051954, 96596.32701829994, -187500.02235174447, -135348.3957467551, -63448.26530793492, -33240.15089752089, 19859.994335173888, 94193.983875988, 0.132, -0.07, 1.0, 192.0, 0.0, 0.0, 0.0, 0.0, 0.0, 0.0, 0.0, 0.0, 0.0, 1.6257084752170928E9, 0.0, 2021-07-07 21:41:15.217
131.0, -17313.52714461412, 96593.82362292096, -187500.02235174447, -135372.98266565593, -63453.09328473727, -33240.97791206573, 19855.345172327183, 94198.56598360134, 0.132, -0.07, 1.0, 192.0, 0.0, 0.0, 0.0, 0.0, 0.0, 0.0, 0.0, 0.0, 0.0, 1.6257084752171571E9, 0.0, 2021-07-07 21:41:15.217
132.0, -17357.180101535334, 96597.26579156707, -187500.02235174447, -135375.21784010148, -63434.22841241699, -33220.97310077824, 19872.31014636876, 94216.4920826545, 0.132, -0.07, 1.0, 192.0, 0.0, 0.0, 0.0, 0.0, 0.0, 0.0, 0.0, 0.0, 0.0, 1.625708475217222E9, 0.0, 2021-07-07 21:41:15.217
133.0, -17374.39094476592, 96601.4008642913, -187500.02235174447, -135364.1090231072, -63408.345092337746, -33193.36869637593, 19897.120582714153, 94230.2384054945, 0.132, -0.07, 1.0, 192.0, 0.0, 0.0, 0.0, 0.0, 0.0, 0.0, 0.0, 0.0, 0.0, 1.6257084752172878E9, 0.0, 2021-07-07 21:41:15.217
134.0, -17336.169461747344, 96599.23274507913, -187500.02235174447, -135317.28211847332, -63363.01575458238, -33149.24635282116, 19941.578202435758, 94256.23348429603, 0.132, -0.07, 1.0, 192.0, 0.0, 0.0, 0.0, 0.0, 0.0, 0.0, 0.0, 0.0, 0.0, 1.625708475217355E9, 0.0, 2021-07-07 21:41:15.217
135.0, -17310.2861416681, 96592.86249790937, -187500.02235174447, -135337.33163324973, -63395.24697008693, -33179.80118749156, 19910.688091598524, 94210.7923878184, 0.134, -0.07200000000000001, 1.006, 192.0, 4.0, 48.0, 253.0, 192.0, 31.0, 112.0, 0.0, 0.0, 0.0, 1.6257084752174203E9, 0.0, 2021-07-07 21:41:15.217
136.0, -17341.980915305725, 96593.19777407621, -187500.02235174447, -135346.4958484764, -63417.68812152006, -33200.3871441349, 19890.66092856657, 94197.31428591184, 0.134, -0.07200000000000001, 1.006, 192.0, 0.0, 0.0, 0.0, 0.0, 0.0, 0.0, 0.0, 0.0, 0.0, 1.625708475217471E9, 0.0, 2021-07-07 21:41:15.217
137.0, -17365.09261907251, 96594.49417525461, -187500.02235174447, -135319.1373132631, -63400.41022305611, -33185.344420116475, 19906.329501429736, 94212.06643725235, 0.134, -0.07200000000000001, 1.006, 192.0, 0.0, 0.0, 0.0, 0.0, 0.0, 0.0, 0.0, 0.0, 0.0, 1.6257084752174864E9, 0.0, 2021-07-07 21:41:15.217
138.0, -17326.2899906981, 96588.45920425167, -187500.02235174447, -135322.42301969804, -63415.45294707453, -33200.14127494589, 19892.784344289823, 94198.72244581253, 0.134, -0.07200000000000001, 1.006, 192.0, 0.0, 0.0, 0.0, 0.0, 0.0, 0.0, 0.0, 0.0, 0.0, 1.6257084752175033E9, 0.0, 2021-07-07 21:41:15.217
139.0, -17310.442603879288, 96579.71967216965, -187500.02235174447, -135365.33836905222, -63467.48780816649, -33247.974008080244, 19847.343247812183, 94165.21718087402, 0.134, -0.07200000000000001, 1.006, 192.0, 0.0, 0.0, 0.0, 0.0, 0.0, 0.0, 0.0, 0.0, 0.0, 1.6257084752175193E9, 0.0, 2021-07-07 21:41:15.217
140.0, -17342.651467639385, 96577.66331167976, -187500.02235174447, -135408.05255270633, -63498.48967772599, -33275.08667410453, 19820.92348586601, 94160.59036977177, 0.134, -0.07200000000000001, 1.006, 192.0, 0.0, 0.0, 0.0, 0.0, 0.0, 0.0, 0.0, 0.0, 0.0, 1.625708475217534E9, 0.0, 2021-07-07 21:41:15.217
141.0, -17370.658203441883, 96582.93832337121, -187500.02235174447, -135375.93309592403, -63445.672505578106, -33222.80594382357, 19873.40538184707, 94219.73308560051, 0.134, -0.07200000000000001, 1.006, 192.0, 0.0, 0.0, 0.0, 0.0, 0.0, 0.0, 0.0, 0.0, 0.0, 1.6257084752175455E9, 0.0, 2021-07-07 21:41:15.217
142.0, -17343.52318567314, 96582.02190184855, -187500.02235174447, -135384.6055727727, -63437.692932807564, -33212.09945822948, 19879.93209122802, 94218.61549837775, 0.134, -0.07200000000000001, 1.006, 192.0, 0.0, 0.0, 0.0, 0.0, 0.0, 0.0, 0.0, 0.0, 0.0, 1.6257084752175586E9, 0.0, 2021-07-07 21:41:15.217
143.0, -17319.629170850418, 96575.2940267675, -187500.02235174447, -135378.36943606968, -63426.51706057991, -33197.61552782244, 19890.37035588865, 94225.41042869216, 0.134, -0.07200000000000001, 1.006, 192.0, 0.0, 0.0, 0.0, 0.0, 0.0, 0.0, 0.0, 0.0, 0.0, 1.6257084752175708E9, 0.0, 2021-07-07 21:41:15.217
144.0, -17348.842900853506, 96573.61764593335, -187500.02235174447, -135375.3966540571, -63432.999066471944, -33202.10822845796, 19882.860169751664, 94212.46876865254, 0.134, -0.07200000000000001, 1.006, 192.0, 0.0, 0.0, 0.0, 0.0, 0.0, 0.0, 0.0, 0.0, 0.0, 1.625708475217585E9, 0.0, 2021-07-07 21:41:15.217
145.0, -17383.421049525863, 96576.9927593461, -187500.02235174447, -135367.64059873112, -63437.0223804739, -33203.65049882537, 19878.03219294932, 94203.46101563705, 0.14200000000000002, -0.068, 1.008, 192.0, 4.0, 112.0, 253.0, 224.0, 31.0, 128.0, 0.0, 0.0, 0.0, 1.6257084752176003E9, 0.0, 2021-07-07 21:41:15.217
146.0, -17363.639755682918, 96575.7410616566, -187500.02235174447, -135370.23340108793, -63447.818273045814, -33213.664080341354, 19864.710553253957, 94189.17825093011, 0.14200000000000002, -0.068, 1.008, 192.0, 0.0, 0.0, 0.0, 0.0, 0.0, 0.0, 0.0, 0.0, 0.0, 1.6257084752176232E9, 0.0, 2021-07-07 21:41:15.217
147.0, -17333.2413832237, 96568.94613134219, -187500.02235174447, -135340.28206351784, -63425.4218251016, -33190.4853213412, 19887.017594220353, 94210.01007676245, 0.14200000000000002, -0.068, 1.008, 192.0, 0.0, 0.0, 0.0, 0.0, 0.0, 0.0, 0.0, 0.0, 0.0, 1.6257084752176423E9, 0.0, 2021-07-07 21:41:15.217
148.0, -17341.444473438798, 96567.42621271923, -187500.02235174447, -135357.2917410483, -63452.10980798124, -33214.491094886194, 19861.424846819027, 94186.20546891756, 0.14200000000000002, -0.068, 1.008, 192.0, 0.0, 0.0, 0.0, 0.0, 0.0, 0.0, 0.0, 0.0, 0.0, 1.625708475217658E9, 0.0, 2021-07-07 21:41:15.217
149.0, -17366.210206295276, 96572.61181743286, -187500.02235174447, -135396.51905256737, -63481.725869384514, -33245.29179874561, 19829.41714875903, 94168.99462568696, 0.14200000000000002, -0.068, 1.008, 192.0, 0.0, 0.0, 0.0, 0.0, 0.0, 0.0, 0.0, 0.0, 0.0, 1.6257084752176747E9, 0.0, 2021-07-07 21:41:15.217
150.0, -17348.06058979757, 96574.6458261783, -187500.02235174447, -135394.37328509966, -63458.83768306228, -33225.66696711385, 19847.54441351228, 94198.05189347887, 0.14200000000000002, -0.068, 1.008, 192.0, 0.0, 0.0, 0.0, 0.0, 0.0, 0.0, 0.0, 0.0, 0.0, 1.625708475217701E9, 0.0, 2021-07-07 21:41:15.217
151.0, -17305.32405439902, 96571.538933699, -187500.02235174447, -135427.67738433808, -63475.48973268148, -33239.81562135406, 19832.389930771584, 94185.95959972854, 0.14200000000000002, -0.068, 1.008, 192.0, 0.0, 0.0, 0.0, 0.0, 0.0, 0.0, 0.0, 0.0, 0.0, 1.6257084752177184E9, 0.0, 2021-07-07 21:41:15.217
152.0, -17321.57377261803, 96570.95778834318, -187500.02235174447, -135467.68700691307, -63499.003767848466, -33260.53568846413, 19811.379290983594, 94177.68945428007, 0.14200000000000002, -0.068, 1.008, 192.0, 0.0, 0.0, 0.0, 0.0, 0.0, 0.0, 0.0, 0.0, 0.0, 1.6257084752177343E9, 0.0, 2021-07-07 21:41:15.217
153.0, -17361.359877748477, 96576.56807620145, -187500.02235174447, -135449.8279630933, -63477.32257572682, -33236.328749219036, 19835.630933717603, 94206.8808325387, 0.14200000000000002, -0.068, 1.008, 192.0, 0.0, 0.0, 0.0, 0.0, 0.0, 0.0, 0.0, 0.0, 0.0, 1.625708475217759E9, 0.0, 2021-07-07 21:41:15.217
154.0, -17343.791406606604, 96580.72550067015, -187500.02235174447, -135415.27216616538, -63454.479092893496, -33212.680603585315, 19859.726114240424, 94221.07419026783, 0.14200000000000002, -0.068, 1.008, 192.0, 0.0, 0.0, 0.0, 0.0, 0.0, 0.0, 0.0, 0.0, 0.0, 1.6257084752177746E9, 0.0, 2021-07-07 21:41:15.217
155.0, -17294.975196716216, 96578.78089890254, -187500.02235174447, -135418.84844527824, -63470.25942447894, -33226.248112469686, 19846.762102456345, 94200.71175106904, 0.14200000000000002, -0.068, 0.998, 192.0, 4.0, 112.0, 253.0, 224.0, 31.0, 48.0, 0.0, 0.0, 0.0, 1.6257084752177904E9, 0.0, 2021-07-07 21:41:15.217
156.0, -17287.442658834774, 96575.80811688998, -187500.02235174447, -135430.42664890608, -63494.734584657504, -33246.63290341293, 19827.07021559122, 94184.84201250577, 0.14200000000000002, -0.068, 0.998, 192.0, 0.0, 0.0, 0.0, 0.0, 0.0, 0.0, 0.0, 0.0, 0.0, 1.6257084752178109E9, 0.0, 2021-07-07 21:41:15.217
157.0, -17326.66997035384, 96576.41161399026, -187500.02235174447, -135432.8629890517, -63510.38080577622, -33259.328694263546, 19816.319026508216, 94179.61170430324, 0.14200000000000002, -0.068, 0.998, 192.0, 0.0, 0.0, 0.0, 0.0, 0.0, 0.0, 0.0, 0.0, 0.0, 1.6257084752178316E9, 0.0, 2021-07-07 21:41:15.217
158.0, -17348.597031664496, 96575.78576514551, -187500.02235174447, -135434.09233499676, -63521.579029748325, -33269.96812462427, 19807.311273492727, 94177.08595717979, 0.14200000000000002, -0.068, 0.998, 192.0, 0.0, 0.0, 0.0, 0.0, 0.0, 0.0, 0.0, 0.0, 0.0, 1.6257084752178495E9, 0.0, 2021-07-07 21:41:15.217
159.0, -17309.704996312263, 96570.35429124288, -187500.02235174447, -135446.0281665359, -63523.121300115745, -33270.77278742466, 19806.64072115907, 94184.50673633895, 0.14200000000000002, -0.068, 0.998, 192.0, 0.0, 0.0, 0.0, 0.0, 0.0, 0.0, 0.0, 0.0, 0.0, 1.6257084752178712E9, 0.0, 2021-07-07 21:41:15.217
160.0, -17291.018937947625, 96565.88394235182, -187500.02235174447, -135452.75604161693, -63507.47507899703, -33253.31607500507, 19824.656227190048, 94203.9304022706, 0.14200000000000002, -0.068, 0.998, 192.0, 0.0, 0.0, 0.0, 0.0, 0.0, 0.0, 0.0, 0.0, 0.0, 1.6257084752178907E9, 0.0, 2021-07-07 21:41:15.217
161.0, -17328.435758165808, 96566.93447434122, -187500.02235174447, -135467.5752481908, -63503.92115162864, -33247.05758655758, 19828.523078980816, 94205.65148659366, 0.14200000000000002, -0.068, 0.998, 192.0, 0.0, 0.0, 0.0, 0.0, 0.0, 0.0, 0.0, 0.0, 0.0, 1.6257084752179115E9, 0.0, 2021-07-07 21:41:15.217
162.0, -17347.591203164007, 96570.46604996515, -187500.02235174447, -135459.43921320906, -63483.15638102966, -33224.772897335635, 19846.73975071189, 94220.02365827843, 0.14200000000000002, -0.068, 0.998, 192.0, 0.0, 0.0, 0.0, 0.0, 0.0, 0.0, 0.0, 0.0, 0.0, 1.6257084752179344E9, 0.0, 2021-07-07 21:41:15.217
163.0, -17315.069414981535, 96568.29793075299, -187500.02235174447, -135425.44220989256, -63455.06023824934, -33198.2860801561, 19876.132294670617, 94230.17135026114, 0.14200000000000002, -0.068, 0.998, 192.0, 0.0, 0.0, 0.0, 0.0, 0.0, 0.0, 0.0, 0.0, 0.0, 1.6257084752179503E9, 0.0, 2021-07-07 21:41:15.217
164.0, -17291.667138536828, 96563.62641616183, -187500.02235174447, -135424.34697441425, -63468.47128492252, -33210.579539606515, 19868.622108533636, 94207.484329639, 0.14200000000000002, -0.068, 0.998, 192.0, 0.0, 0.0, 0.0, 0.0, 0.0, 0.0, 0.0, 0.0, 0.0, 1.6257084752179666E9, 0.0, 2021-07-07 21:41:15.217
165.0, -17310.487307368196, 96565.03457606252, -187500.02235174447, -135453.40424220613, -63512.28070405492, -33249.873906358946, 19831.518212737825, 94175.6777972791, 0.14200000000000002, -0.07200000000000001, 1.002, 192.0, 4.0, 112.0, 253.0, 192.0, 31.0, 80.0, 0.0, 0.0, 0.0, 1.6257084752179844E9, 0.0, 2021-07-07 21:41:15.217
166.0, -17333.129624501424, 96570.35429124288, -187500.02235174447, -135435.94752978653, -63506.33514002981, -33243.45895570028, 19839.27426806382, 94189.26765790793, 0.14200000000000002, -0.07200000000000001, 1.002, 192.0, 0.0, 0.0, 0.0, 0.0, 0.0, 0.0, 0.0, 0.0, 0.0, 1.625708475218007E9, 0.0, 2021-07-07 21:41:15.218
167.0, -17312.454260880266, 96569.16964878674, -187500.02235174447, -135412.16527368609, -63492.164134045146, -33232.618359639455, 19852.35003857017, 94200.48823362449, 0.14200000000000002, -0.07200000000000001, 1.002, 192.0, 0.0, 0.0, 0.0, 0.0, 0.0, 0.0, 0.0, 0.0, 0.0, 1.6257084752180264E9, 0.0, 2021-07-07 21:41:15.218
168.0, -17289.454315835752, 96564.43107896223, -187500.02235174447, -135432.8182855628, -63509.53143948692, -33248.77867088064, 19836.59205872918, 94184.37262587222, 0.14200000000000002, -0.07200000000000001, 1.002, 192.0, 0.0, 0.0, 0.0, 0.0, 0.0, 0.0, 0.0, 0.0, 0.0, 1.6257084752180412E9, 0.0, 2021-07-07 21:41:15.218
169.0, -17316.14229871539, 96563.60406441738, -187500.02235174447, -135494.5314520039, -63552.17856790764, -33287.290726577136, 19795.464848931417, 94155.89650343616, 0.14200000000000002, -0.07200000000000001, 1.002, 192.0, 0.0, 0.0, 0.0, 0.0, 0.0, 0.0, 0.0, 0.0, 0.0, 1.625708475218058E9, 0.0, 2021-07-07 21:41:15.218
170.0, -17353.916746844858, 96565.90629409628, -187500.02235174447, -135505.0814753868, -63541.56148929137, -33276.53953749413, 19805.433726958483, 94176.79538450186, 0.14200000000000002, -0.07200000000000001, 1.002, 192.0, 0.0, 0.0, 0.0, 0.0, 0.0, 0.0, 0.0, 0.0, 0.0, 1.6257084752180758E9, 0.0, 2021-07-07 21:41:15.218
171.0, -17347.23357525272, 96568.67791040873, -187500.02235174447, -135495.224356082, -63512.72773894403, -33250.20918252578, 19834.02160811682, 94204.57860285981, 0.14200000000000002, -0.07200000000000001, 1.002, 192.0, 0.0, 0.0, 0.0, 0.0, 0.0, 0.0, 0.0, 0.0, 0.0, 1.6257084752181003E9, 0.0, 2021-07-07 21:41:15.218
172.0, -17319.495060383684, 96564.36402372886, -187500.02235174447, -135459.95330333154, -63472.8298750913, -33210.24426343969, 19874.902948725576, 94231.6912688841, 0.14200000000000002, -0.07200000000000001, 1.002, 192.0, 0.0, 0.0, 0.0, 0.0, 0.0, 0.0, 0.0, 0.0, 0.0, 1.6257084752181263E9, 0.0, 2021-07-07 21:41:15.218
173.0, -17327.04995000958, 96562.79940161698, -187500.02235174447, -135457.24874225244, -63480.78709611739, -33215.74279257569, 19869.717344011944, 94213.04991400837, 0.14200000000000002, -0.07200000000000001, 1.002, 192.0, 0.0, 0.0, 0.0, 0.0, 0.0, 0.0, 0.0, 0.0, 0.0, 1.625708475218146E9, 0.0, 2021-07-07 21:41:15.218
174.0, -17348.57467992004, 96569.28140750903, -187500.02235174447, -135447.9280648146, -63481.54705542888, -33217.642690854394, 19868.97973644492, 94206.25498369396, 0.14200000000000002, -0.07200000000000001, 1.002, 192.0, 0.0, 0.0, 0.0, 0.0, 0.0, 0.0, 0.0, 0.0, 0.0, 1.6257084752182317E9, 0.0, 2021-07-07 21:41:15.218
175.0, -17334.582487891017, 96571.38247148783, -187500.02235174447, -135463.70839640003, -63507.542134230396, -33244.46478420076, 19841.174166342516, 94180.55047757036, 0.134, -0.074, 0.996, 192.0, 4.0, 48.0, 253.0, 176.0, 31.0, 32.0, 0.0, 0.0, 0.0, 1.6257084752182617E9, 0.0, 2021-07-07 21:41:15.218
176.0, -17284.603987288952, 96565.28044525153, -187500.02235174447, -135445.7822973469, -63499.40609924866, -33235.72525211874, 19850.047808891275, 94195.45909112204, 0.134, -0.074, 0.996, 192.0, 0.0, 0.0, 0.0, 0.0, 0.0, 0.0, 0.0, 0.0, 0.0, 1.6257084752182806E9, 0.0, 2021-07-07 21:41:15.218
177.0, -17277.026745918603, 96561.27948299402, -187500.02235174447, -135474.30312327185, -63533.76073047647, -33268.93994437932, 19816.341378252673, 94166.29006460788, 0.134, -0.074, 0.996, 192.0, 0.0, 0.0, 0.0, 0.0, 0.0, 0.0, 0.0, 0.0, 0.0, 1.6257084752182972E9, 0.0, 2021-07-07 21:41:15.218
178.0, -17312.52131611363, 96563.91698883974, -187500.02235174447, -135540.66545255965, -63587.87430380277, -33322.74059328325, 19761.691363059446, 94135.44465725955, 0.134, -0.074, 0.996, 192.0, 0.0, 0.0, 0.0, 0.0, 0.0, 0.0, 0.0, 0.0, 0.0, 1.6257084752183144E9, 0.0, 2021-07-07 21:41:15.218
179.0, -17302.23951366419, 96565.81688711845, -187500.02235174447, -135548.0415282299, -63573.7032978181, -33309.48600882125, 19773.53778762076, 94166.35711984124, 0.134, -0.074, 0.996, 192.0, 0.0, 0.0, 0.0, 0.0, 0.0, 0.0, 0.0, 0.0, 0.0, 1.625708475218332E9, 0.0, 2021-07-07 21:41:15.218
180.0, -17250.98696362817, 96562.84410510589, -187500.02235174447, -135518.6489842712, -63522.227230337536, -33258.747548907704, 19825.617352201625, 94212.75934133046, 0.134, -0.074, 0.996, 192.0, 0.0, 0.0, 0.0, 0.0, 0.0, 0.0, 0.0, 0.0, 0.0, 1.6257084752183495E9, 0.0, 2021-07-07 21:41:15.218
181.0, -17248.88589964937, 96559.24547424859, -187500.02235174447, -135513.55278653538, -63505.306959784866, -33239.30153123159, 19845.39864604457, 94220.85067282328, 0.134, -0.074, 0.996, 192.0, 0.0, 0.0, 0.0, 0.0, 0.0, 0.0, 0.0, 0.0, 0.0, 1.6257084752183664E9, 0.0, 2021-07-07 21:41:15.218
182.0, -17296.65157755036, 96559.98308181562, -187500.02235174447, -135491.31280080235, -63490.15247704417, -33221.86717055645, 19862.564785786246, 94225.29866996988, 0.134, -0.074, 0.996, 192.0, 0.0, 0.0, 0.0, 0.0, 0.0, 0.0, 0.0, 0.0, 0.0, 1.6257084752183847E9, 0.0, 2021-07-07 21:41:15.218
183.0, -17314.57767660352, 96562.95586382817, -187500.02235174447, -135467.53054470188, -63476.5849681598, -33210.71365007325, 19873.96417545845, 94220.9400798011, 0.134, -0.074, 0.996, 192.0, 0.0, 0.0, 0.0, 0.0, 0.0, 0.0, 0.0, 0.0, 0.0, 1.6257084752184012E9, 0.0, 2021-07-07 21:41:15.218
184.0, -17284.000490188657, 96560.07248879343, -187500.02235174447, -135486.730693189, -63505.70929118506, -33241.76022312167, 19841.822366931723, 94185.87019275072, 0.134, -0.074, 0.996, 192.0, 0.0, 0.0, 0.0, 0.0, 0.0, 0.0, 0.0, 0.0, 0.0, 1.6257084752184184E9, 0.0, 2021-07-07 21:41:15.218
185.0, -17268.488379536677, 96557.32322422543, -187500.02235174447, -135493.5256235034, -63523.411872793666, -33257.54055470712, 19824.812689401235, 94177.42123334661, 0.132, -0.07200000000000001, 1.0, 192.0, 4.0, 32.0, 253.0, 192.0, 31.0, 64.0, 0.0, 0.0, 0.0, 1.6257084752184343E9, 0.0, 2021-07-07 21:41:15.218
186.0, -17308.09567071148, 96560.56422717146, -187500.02235174447, -135501.95223116307, -63545.18247189313, -33277.34420029452, 19806.17133452551, 94163.71961399552, 0.132, -0.07200000000000001, 1.0, 192.0, 0.0, 0.0, 0.0, 0.0, 0.0, 0.0, 0.0, 0.0, 0.0, 1.6257084752184525E9, 0.0, 2021-07-07 21:41:15.218
187.0, -17347.63590665292, 96564.74400338459, -187500.02235174447, -135494.6208589817, -63541.785006735925, -33274.81845317107, 19809.479392704892, 94173.80025074485, 0.132, -0.07200000000000001, 1.0, 192.0, 0.0, 0.0, 0.0, 0.0, 0.0, 0.0, 0.0, 0.0, 0.0, 1.6257084752184696E9, 0.0, 2021-07-07 21:41:15.218
188.0, -17327.65344710987, 96561.95003532768, -187500.02235174447, -135515.25151911398, -63545.47304457105, -33277.59006948353, 19803.042090301766, 94173.75554725595, 0.132, -0.07200000000000001, 1.0, 192.0, 0.0, 0.0, 0.0, 0.0, 0.0, 0.0, 0.0, 0.0, 0.0, 1.6257084752184887E9, 0.0, 2021-07-07 21:41:15.218
189.0, -17308.654464322863, 96554.52925616852, -187500.02235174447, -135571.82378433037, -63583.69452758963, -33312.4140873449, 19765.737028805856, 94152.25316908993, 0.132, -0.07200000000000001, 1.0, 192.0, 0.0, 0.0, 0.0, 0.0, 0.0, 0.0, 0.0, 0.0, 0.0, 1.6257084752185063E9, 0.0, 2021-07-07 21:41:15.218
190.0, -17333.978990790725, 96557.56909341444, -187500.02235174447, -135547.05805147387, -63539.3486665903, -33266.70476993379, 19811.580456683692, 94200.71175106904, 0.132, -0.07200000000000001, 1.0, 192.0, 0.0, 0.0, 0.0, 0.0, 0.0, 0.0, 0.0, 0.0, 0.0, 1.625708475218526E9, 0.0, 2021-07-07 21:41:15.218
191.0, -17359.415275980864, 96563.15702952827, -187500.02235174447, -135513.7986557244, -63495.62865443571, -33224.839952569004, 19853.40057055957, 94225.76805660344, 0.132, -0.07200000000000001, 1.0, 192.0, 0.0, 0.0, 0.0, 0.0, 0.0, 0.0, 0.0, 0.0, 0.0, 1.6257084752185433E9, 0.0, 2021-07-07 21:41:15.218
192.0, -17320.23266795071, 96558.86549459286, -187500.02235174447, -135521.86763547274, -63512.28070405492, -33242.22960975523, 19836.54735524027, 94196.15199520017, 0.132, -0.07200000000000001, 1.0, 192.0, 0.0, 0.0, 0.0, 0.0, 0.0, 0.0, 0.0, 0.0, 0.0, 1.6257084752185693E9, 0.0, 2021-07-07 21:41:15.218
193.0, -17277.74200174117, 96550.32712821092, -187500.02235174447, -135524.8404174853, -63525.87056468375, -33255.41713898387, 19825.282076034793, 94186.1831171731, 0.132, -0.07200000000000001, 1.0, 192.0, 0.0, 0.0, 0.0, 0.0, 0.0, 0.0, 0.0, 0.0, 0.0, 1.6257084752185867E9, 0.0, 2021-07-07 21:41:15.218
194.0, -17320.545592373084, 96546.79555258699, -187500.02235174447, -135530.45070534357, -63542.18733813612, -33268.64937170141, 19812.563933439724, 94176.21423914602, 0.132, -0.076, 1.0, 192.0, 4.0, 32.0, 253.0, 160.0, 31.0, 64.0, 0.0, 0.0, 0.0, 1.6257084752186046E9, 0.0, 2021-07-07 21:41:15.218
195.0, -17395.826267698558, 96548.71780261015, -187500.02235174447, -135518.7830947379, -63542.63437302523, -33269.789310668624, 19811.06636656122, 94176.81773624632, 0.132, -0.076, 1.0, 192.0, 0.0, 0.0, 0.0, 0.0, 0.0, 0.0, 0.0, 0.0, 0.0, 1.625708475218622E9, 0.0, 2021-07-07 21:41:15.218
196.0, -17388.517247261672, 96545.9908897866, -187500.02235174447, -135532.61882455574, -63561.94628023461, -33288.09538937752, 19791.642700629556, 94161.14916338315, 0.132, -0.076, 1.0, 192.0, 0.0, 0.0, 0.0, 0.0, 0.0, 0.0, 0.0, 0.0, 0.0, 1.6257084752186391E9, 0.0, 2021-07-07 21:41:15.218
197.0, -17339.254002482176, 96539.30771819445, -187500.02235174447, -135540.75485953747, -63556.15717842069, -33279.869947417974, 19800.851619345143, 94174.76137575644, 0.132, -0.076, 1.0, 192.0, 0.0, 0.0, 0.0, 0.0, 0.0, 0.0, 0.0, 0.0, 0.0, 1.6257084752186563E9, 0.0, 2021-07-07 21:41:15.218
198.0, -17338.114063514957, 96535.97730827062, -187500.02235174447, -135564.15713598218, -63562.907405246195, -33283.11095036399, 19798.705851877436, 94174.5825618008, 0.132, -0.076, 1.0, 192.0, 0.0, 0.0, 0.0, 0.0, 0.0, 0.0, 0.0, 0.0, 0.0, 1.625708475218674E9, 0.0, 2021-07-07 21:41:15.218
199.0, -17354.542595689607, 96540.00062227258, -187500.02235174447, -135544.26408341696, -63526.85404143978, -33247.43756621332, 19833.574573227714, 94207.8866610392, 0.132, -0.076, 1.0, 192.0, 0.0, 0.0, 0.0, 0.0, 0.0, 0.0, 0.0, 0.0, 0.0, 1.6257084752186916E9, 0.0, 2021-07-07 21:41:15.218
200.0, -17330.849746566983, 96543.2863287075, -187500.02235174447, -135490.1281583462, -63469.72298261202, -33195.29094639909, 19885.296509897293, 94238.8438271098, 0.132, -0.076, 1.0, 192.0, 0.0, 0.0, 0.0, 0.0, 0.0, 0.0, 0.0, 0.0, 0.0, 1.625708475218708E9, 0.0, 2021-07-07 21:41:15.218
201.0, -17292.002414703657, 96539.37477342783, -187500.02235174447, -135491.71513220255, -63482.642290907184, -33208.992565750195, 19870.94668995699, 94208.60191686176, 0.132, -0.076, 1.0, 192.0, 0.0, 0.0, 0.0, 0.0, 0.0, 0.0, 0.0, 0.0, 0.0, 1.625708475218725E9, 0.0, 2021-07-07 21:41:15.218
202.0, -17282.748792499162, 96535.86554954834, -187500.02235174447, -135490.88811765768, -63495.51689571344, -33218.96144377726, 19860.26255610735, 94193.55919284334, 0.132, -0.076, 1.0, 192.0, 0.0, 0.0, 0.0, 0.0, 0.0, 0.0, 0.0, 0.0, 0.0, 1.625708475218742E9, 0.0, 2021-07-07 21:41:15.218
203.0, -17310.62141783493, 96539.71004959465, -187500.02235174447, -135482.50621348695, -63501.68597718311, -33225.17522873583, 19853.557032770757, 94187.2336491625, 0.132, -0.076, 1.0, 192.0, 0.0, 0.0, 0.0, 0.0, 0.0, 0.0, 0.0, 0.0, 0.0, 1.6257084752187712E9, 0.0, 2021-07-07 21:41:15.218
204.0, -17304.42998462081, 96543.15221824076, -187500.02235174447, -135475.24189653897, -63506.84923015228, -33233.66889162885, 19846.382122800605, 94179.34348336977, 0.138, -0.074, 0.996, 192.0, 4.0, 80.0, 253.0, 176.0, 31.0, 32.0, 0.0, 0.0, 0.0, 1.625708475218788E9, 0.0, 2021-07-07 21:41:15.218
205.0, -17253.2221380737, 96538.4807036496, -187500.02235174447, -135468.89400111366, -63508.637369708704, -33236.35110096349, 19844.102244866164, 94177.91297172464, 0.138, -0.074, 0.996, 192.0, 0.0, 0.0, 0.0, 0.0, 0.0, 0.0, 0.0, 0.0, 0.0, 1.6257084752188041E9, 0.0, 2021-07-07 21:41:15.218
206.0, -17225.640085415853, 96532.93747102469, -187500.02235174447, -135523.85694072925, -63556.55950982089, -33279.44526427332, 19798.884665833077, 94146.6205294872, 0.138, -0.074, 0.996, 192.0, 0.0, 0.0, 0.0, 0.0, 0.0, 0.0, 0.0, 0.0, 0.0, 1.6257084752188203E9, 0.0, 2021-07-07 21:41:15.218
207.0, -17255.680829963785, 96533.6303751028, -187500.02235174447, -135538.43027811413, -63553.09498943031, -33272.046836858615, 19803.198552512953, 94168.23466637549, 0.138, -0.074, 0.996, 192.0, 0.0, 0.0, 0.0, 0.0, 0.0, 0.0, 0.0, 0.0, 0.0, 1.6257084752188363E9, 0.0, 2021-07-07 21:41:15.218
208.0, -17260.75467595514, 96538.61481411634, -187500.02235174447, -135510.84822545628, -63506.42454700763, -33224.28115895762, 19845.555108255758, 94208.87013779524, 0.138, -0.074, 0.996, 192.0, 0.0, 0.0, 0.0, 0.0, 0.0, 0.0, 0.0, 0.0, 0.0, 1.6257084752188528E9, 0.0, 2021-07-07 21:41:15.218
209.0, -17228.59051568395, 96536.84902630438, -187500.02235174447, -135503.5392050194, -63484.05045080787, -33202.66702206934, 19863.816483475744, 94212.55817563036, 0.138, -0.074, 0.996, 192.0, 0.0, 0.0, 0.0, 0.0, 0.0, 0.0, 0.0, 0.0, 0.0, 1.6257084752188692E9, 0.0, 2021-07-07 21:41:15.218
210.0, -17213.681902132263, 96529.94233726768, -187500.02235174447, -135521.8899872172, -63507.3409685303, -33226.181057236325, 19839.20721283045, 94182.94211422707, 0.138, -0.074, 0.996, 192.0, 0.0, 0.0, 0.0, 0.0, 0.0, 0.0, 0.0, 0.0, 0.0, 1.6257084752188847E9, 0.0, 2021-07-07 21:41:15.218
211.0, -17252.79745492905, 96528.19890120017, -187500.02235174447, -135527.36616460874, -63524.82003269435, -33242.83310685553, 19821.63874168858, 94170.69335826556, 0.138, -0.074, 0.996, 192.0, 0.0, 0.0, 0.0, 0.0, 0.0, 0.0, 0.0, 0.0, 0.0, 1.6257084752189002E9, 0.0, 2021-07-07 21:41:15.218
212.0, -17276.356193584943, 96530.34466866788, -187500.02235174447, -135527.03088844192, -63537.314657844865, -33255.9982843397, 19807.087756048175, 94165.53010529639, 0.138, -0.074, 0.996, 192.0, 0.0, 0.0, 0.0, 0.0, 0.0, 0.0, 0.0, 0.0, 0.0, 1.625708475218915E9, 0.0, 2021-07-07 21:41:15.218
213.0, -17243.901460635836, 96530.12115122333, -187500.02235174447, -135497.19130959408, -63517.66747446865, -33239.36858646495, 19824.812689401235, 94185.95959972854, 0.138, -0.074, 0.996, 192.0, 0.0, 0.0, 0.0, 0.0, 0.0, 0.0, 0.0, 0.0, 0.0, 1.6257084752189314E9, 0.0, 2021-07-07 21:41:15.218
214.0, -17213.704253876716, 96524.28734592049, -187500.02235174447, -135506.26611784293, -63535.52651828844, -33254.277200016644, 19810.373462483105, 94170.8721722212, 0.13, -0.07, 0.998, 192.0, 4.0, 16.0, 253.0, 208.0, 31.0, 48.0, 0.0, 0.0, 0.0, 1.6257084752189553E9, 0.0, 2021-07-07 21:41:15.218
215.0, -17225.014236571104, 96521.85100577486, -187500.02235174447, -135583.93842982512, -63603.587580154854, -33318.65022404793, 19744.257002384307, 94121.13954080816, 0.13, -0.07, 0.998, 192.0, 0.0, 0.0, 0.0, 0.0, 0.0, 0.0, 0.0, 0.0, 0.0, 1.6257084752189708E9, 0.0, 2021-07-07 21:41:15.218
216.0, -17239.36405651141, 96525.29317442098, -187500.02235174447, -135592.14152004023, -63590.020071270475, -33304.99330818574, 19754.71761878939, 94151.76143071192, 0.13, -0.07, 0.998, 192.0, 0.0, 0.0, 0.0, 0.0, 0.0, 0.0, 0.0, 0.0, 0.0, 1.6257084752189865E9, 0.0, 2021-07-07 21:41:15.218
217.0, -17211.647893386827, 96526.07548547692, -187500.02235174447, -135594.2649357635, -63572.87628327326, -33285.793159698624, 19771.01204049731, 94169.41930883161, 0.13, -0.07, 0.998, 192.0, 0.0, 0.0, 0.0, 0.0, 0.0, 0.0, 0.0, 0.0, 0.0, 1.6257084752190008E9, 0.0, 2021-07-07 21:41:15.219
218.0, -17181.093058716426, 96520.04051447398, -187500.02235174447, -135612.36984877227, -63574.5526641074, -33283.17800559736, 19771.414371897506, 94170.24632337646, 0.13, -0.07, 0.998, 192.0, 0.0, 0.0, 0.0, 0.0, 0.0, 0.0, 0.0, 0.0, 0.0, 1.6257084752190163E9, 0.0, 2021-07-07 21:41:15.219
219.0, -17207.915152062793, 96518.85587201786, -187500.02235174447, -135583.02200830245, -63545.16012014868, -33253.4501854718, 19803.846753102156, 94197.9848382455, 0.13, -0.07, 0.998, 192.0, 0.0, 0.0, 0.0, 0.0, 0.0, 0.0, 0.0, 0.0, 0.0, 1.6257084752190328E9, 0.0, 2021-07-07 21:41:15.219
220.0, -17251.322239794998, 96526.00843024356, -187500.02235174447, -135563.5536388819, -63537.448768311595, -33247.974008080244, 19814.329721251695, 94193.13450969869, 0.13, -0.07, 0.998, 192.0, 0.0, 0.0, 0.0, 0.0, 0.0, 0.0, 0.0, 0.0, 0.0, 1.6257084752190504E9, 0.0, 2021-07-07 21:41:15.219
221.0, -17243.052094346534, 96527.52834886652, -187500.02235174447, -135548.0415282299, -63535.01242816597, -33245.29179874561, 19818.151869553552, 94188.17242242962, 0.13, -0.07, 0.998, 192.0, 0.0, 0.0, 0.0, 0.0, 0.0, 0.0, 0.0, 0.0, 0.0, 1.6257084752190695E9, 0.0, 2021-07-07 21:41:15.219
222.0, -17183.26117792859, 96520.50990110755, -187500.02235174447, -135540.55369383737, -63538.70046600109, -33247.12464179094, 19813.659168918035, 94181.7798235154, 0.13, -0.07, 0.998, 192.0, 0.0, 0.0, 0.0, 0.0, 0.0, 0.0, 0.0, 0.0, 0.0, 1.6257084752190852E9, 0.0, 2021-07-07 21:41:15.219
223.0, -17093.362461729343, 96520.06286621843, -187500.02235174447, -135558.502144635, -63568.47298961556, -33273.0526653591, 19787.351165694137, 94161.64090176117, 0.13, -0.07, 0.998, 192.0, 0.0, 0.0, 0.0, 0.0, 0.0, 0.0, 0.0, 0.0, 0.0, 1.6257084752191017E9, 0.0, 2021-07-07 21:41:15.219
224.0, -17023.803832984428, 96526.65663083276, -187500.02235174447, -135587.73822638253, -63602.760565610006, -33305.19447388584, 19754.181176922462, 94143.11130560772, 0.126, -0.066, 1.004, 192.0, 3.0, 240.0, 253.0, 240.0, 31.0, 96.0, 0.0, 0.0, 0.0, 1.625708475219118E9, 0.0, 2021-07-07 21:41:15.219
225.0, -16902.500915825476, 96530.16585471224, -187500.02235174447, -135591.6497816622, -63590.26594045949, -33295.180892369855, 19764.44062762745, 94165.50775355194, 0.126, -0.066, 1.004, 192.0, 0.0, 0.0, 0.0, 0.0, 0.0, 0.0, 0.0, 0.0, 0.0, 1.6257084752191372E9, 0.0, 2021-07-07 21:41:15.219
226.0, -16900.19868614658, 96525.29317442098, -187500.02235174447, -135607.05013359193, -63584.83446655685, -33289.034162644646, 19770.00621199682, 94173.1744019001, 0.126, -0.066, 1.004, 192.0, 0.0, 0.0, 0.0, 0.0, 0.0, 0.0, 0.0, 0.0, 0.0, 1.6257084752191546E9, 0.0, 2021-07-07 21:41:15.219
227.0, -17072.86591206383, 96521.44867437467, -187500.02235174447, -135605.03847659094, -63561.365134878775, -33264.58135421054, 19793.29672971925, 94195.99553298898, 0.126, -0.066, 1.004, 192.0, 0.0, 0.0, 0.0, 0.0, 0.0, 0.0, 0.0, 0.0, 0.0, 1.6257084752191737E9, 0.0, 2021-07-07 21:41:15.219
228.0, -17388.78546819514, 96523.59444184238, -187500.02235174447, -135592.96853458506, -63542.45555906958, -33248.04106331361, 19811.938084594978, 94201.49406212498, 0.126, -0.066, 1.004, 192.0, 0.0, 0.0, 0.0, 0.0, 0.0, 0.0, 0.0, 0.0, 0.0, 1.6257084752191913E9, 0.0, 2021-07-07 21:41:15.219
229.0, -17764.875920400133, 96525.76256105454, -187500.02235174447, -135580.004522801, -63538.231079367535, -33246.40938596838, 19816.00610208584, 94195.07911146632, 0.126, -0.066, 1.004, 192.0, 0.0, 0.0, 0.0, 0.0, 0.0, 0.0, 0.0, 0.0, 0.0, 1.625708475219208E9, 0.0, 2021-07-07 21:41:15.219
230.0, -17818.94479023752, 96521.15810169675, -187500.02235174447, -135554.07649923285, -63522.33898905981, -33230.87492357194, 19834.334532539193, 94197.29193416738, 0.126, -0.066, 1.004, 192.0, 0.0, 0.0, 0.0, 0.0, 0.0, 0.0, 0.0, 0.0, 0.0, 1.6257084752192235E9, 0.0, 2021-07-07 21:41:15.219
231.0, -17657.45343654793, 96515.70427604966, -187500.02235174447, -135572.2037639861, -63552.60325105229, -33258.07699657405, 19809.032357815788, 94167.98879718648, 0.126, -0.066, 1.004, 192.0, 0.0, 0.0, 0.0, 0.0, 0.0, 0.0, 0.0, 0.0, 0.0, 1.6257084752192392E9, 0.0, 2021-07-07 21:41:15.219
232.0, -17585.19024672392, 96517.00067722806, -187500.02235174447, -135560.4020429137, -63551.97740220754, -33255.95358085079, 19810.753442138845, 94176.0801286793, 0.126, -0.066, 1.004, 192.0, 0.0, 0.0, 0.0, 0.0, 0.0, 0.0, 0.0, 0.0, 0.0, 1.6257084752192569E9, 0.0, 2021-07-07 21:41:15.219
233.0, -17632.0618548467, 96518.98998248458, -187500.02235174447, -135542.99003398302, -63543.41668408117, -33247.974008080244, 19817.906000364543, 94183.50090783846, 0.126, -0.066, 1.004, 192.0, 0.0, 0.0, 0.0, 0.0, 0.0, 0.0, 0.0, 0.0, 0.0, 1.6257084752192729E9, 0.0, 2021-07-07 21:41:15.219
234.0, -17541.112606658055, 96515.86073826085, -187500.02235174447, -135550.3884613977, -63548.11055041678, -33251.05854881508, 19812.988616584375, 94177.75650951345, 0.13, -0.07, 0.998, 192.0, 4.0, 16.0, 253.0, 208.0, 31.0, 48.0, 0.0, 0.0, 0.0, 1.6257084752192883E9, 0.0, 2021-07-07 21:41:15.219
235.0, -17361.695153915305, 96509.71400853564, -187500.02235174447, -135563.62069411526, -63542.12028290275, -33243.39190046691, 19819.269456776317, 94180.43871884808, 0.13, -0.07, 0.998, 192.0, 0.0, 0.0, 0.0, 0.0, 0.0, 0.0, 0.0, 0.0, 0.0, 1.625708475219312E9, 0.0, 2021-07-07 21:41:15.219
236.0, -17205.076480516967, 96509.69165679118, -187500.02235174447, -135559.7985458134, -63517.80158493538, -33219.184961221814, 19842.001180887364, 94197.29193416738, 0.13, -0.07, 0.998, 192.0, 0.0, 0.0, 0.0, 0.0, 0.0, 0.0, 0.0, 0.0, 0.0, 1.6257084752193365E9, 0.0, 2021-07-07 21:41:15.219
237.0, -17112.584961960907, 96510.85394750285, -187500.02235174447, -135541.91715024915, -63488.00670957646, -33189.4347893518, 19868.0409631778, 94212.84874830827, 0.13, -0.07, 0.998, 192.0, 0.0, 0.0, 0.0, 0.0, 0.0, 0.0, 0.0, 0.0, 0.0, 1.625708475219358E9, 0.0, 2021-07-07 21:41:15.219
238.0, -17045.932059995182, 96506.2271364006, -187500.02235174447, -135493.86089967025, -63442.96794449901, -33146.340626041965, 19910.062242753775, 94235.37930671923, 0.13, -0.07, 0.998, 192.0, 0.0, 0.0, 0.0, 0.0, 0.0, 0.0, 0.0, 0.0, 0.0, 1.625708475219374E9, 0.0, 2021-07-07 21:41:15.219
239.0, -16975.389954494232, 96499.43220608619, -187500.02235174447, -135503.3827428082, -63462.90570055315, -33163.14913787236, 19891.26442566686, 94201.40465514715, 0.13, -0.07, 0.998, 192.0, 0.0, 0.0, 0.0, 0.0, 0.0, 0.0, 0.0, 0.0, 0.0, 1.6257084752193897E9, 0.0, 2021-07-07 21:41:15.219
240.0, -17021.680417261174, 96498.53813630798, -187500.02235174447, -135520.50417906095, -63492.05237532287, -33189.56889981853, 19864.21881487594, 94174.7837275009, 0.13, -0.07, 0.998, 192.0, 0.0, 0.0, 0.0, 0.0, 0.0, 0.0, 0.0, 0.0, 0.0, 1.6257084752194057E9, 0.0, 2021-07-07 21:41:15.219
241.0, -17111.57913346042, 96502.11441542083, -187500.02235174447, -135531.56829256634, -63514.96291338956, -33213.68643208581, 19840.54831749777, 94159.42807906009, 0.13, -0.07, 0.998, 192.0, 0.0, 0.0, 0.0, 0.0, 0.0, 0.0, 0.0, 0.0, 0.0, 1.6257084756975152E9, 0.0, 2021-07-07 21:41:15.697
242.0, -17141.26225009707, 96502.74026426558, -187500.02235174447, -135533.93757747862, -63525.02119839445, -33226.4939816587, 19829.193631314472, 94154.04130864637, 0.13, -0.07, 0.998, 192.0, 0.0, 0.0, 0.0, 0.0, 0.0, 0.0, 0.0, 0.0, 0.0, 1.6257084756976044E9, 0.0, 2021-07-07 21:41:15.697
243.0, -17126.28658131201, 96499.65572353074, -187500.02235174447, -135544.66641481715, -63527.92692517363, -33229.131487504426, 19827.651360947057, 94159.65159650464, 0.13, -0.07, 0.998, 192.0, 0.0, 0.0, 0.0, 0.0, 0.0, 0.0, 0.0, 0.0, 0.0, 1.6257084756976926E9, 0.0, 2021-07-07 21:41:15.697
244.0, -17146.805482721982, 96499.70042701965, -187500.02235174447, -135581.0997582793, -63547.06001842738, -33243.928342333835, 19809.747613638356, 94151.35909931173, 0.134, -0.07, 1.0, 192.0, 4.0, 48.0, 253.0, 208.0, 31.0, 64.0, 0.0, 0.0, 0.0, 1.6257084756977797E9, 0.0, 2021-07-07 21:41:15.697
245.0, -17180.578968593953, 96504.3719416108, -187500.02235174447, -135621.82463667687, -63568.003602982004, -33265.63188619994, 19786.72531684939, 94144.16183759712, 0.134, -0.07, 1.0, 192.0, 0.0, 0.0, 0.0, 0.0, 0.0, 0.0, 0.0, 0.0, 0.0, 1.625708475697867E9, 0.0, 2021-07-07 21:41:15.697
246.0, -17165.715058531172, 96505.80245325595, -187500.02235174447, -135554.9482172666, -63486.777363631416, -33187.9819259622, 19864.73290499841, 94221.18594899011, 0.134, -0.07, 1.0, 192.0, 0.0, 0.0, 0.0, 0.0, 0.0, 0.0, 0.0, 0.0, 0.0, 1.6257084756979566E9, 0.0, 2021-07-07 21:41:15.697
247.0, -17130.421654036243, 96501.33210436489, -187500.02235174447, -135514.0445249134, -63451.28279343639, -33152.44265227827, 19899.378108904137, 94229.3890392052, 0.134, -0.07, 1.0, 192.0, 0.0, 0.0, 0.0, 0.0, 0.0, 0.0, 0.0, 0.0, 0.0, 1.6257084756980405E9, 0.0, 2021-07-07 21:41:15.698
248.0, -17148.01247692257, 96500.21451714213, -187500.02235174447, -135531.72475477753, -63479.89302633918, -33178.75065550216, 19871.192559145995, 94190.85463176426, 0.134, -0.07, 1.0, 192.0, 0.0, 0.0, 0.0, 0.0, 0.0, 0.0, 0.0, 0.0, 0.0, 1.6257084756981256E9, 0.0, 2021-07-07 21:41:15.698
249.0, -17193.654739100308, 96505.71304627814, -187500.02235174447, -135533.4905425895, -63492.81233463435, -33191.357039374954, 19858.653230506567, 94174.4260995896, 0.134, -0.07, 1.0, 192.0, 0.0, 0.0, 0.0, 0.0, 0.0, 0.0, 0.0, 0.0, 0.0, 1.625708475698236E9, 0.0, 2021-07-07 21:41:15.698
250.0, -17180.3554511494, 96509.24462190206, -187500.02235174447, -135512.0775714013, -63480.51887518393, -33182.99748694867, 19866.856320721665, 94181.39984385966, 0.134, -0.07, 1.0, 192.0, 0.0, 0.0, 0.0, 0.0, 0.0, 0.0, 0.0, 0.0, 0.0, 1.6257084756983488E9, 0.0, 2021-07-07 21:41:15.698
251.0, -17132.410959292767, 96507.32237187891, -187500.02235174447, -135526.65090878616, -63504.34583477329, -33207.47264712723, 19839.341323297183, 94157.59523601476, 0.134, -0.07, 1.0, 192.0, 0.0, 0.0, 0.0, 0.0, 0.0, 0.0, 0.0, 0.0, 0.0, 1.6257084756984613E9, 0.0, 2021-07-07 21:41:15.698
252.0, -17125.10193885588, 96507.30002013445, -187500.02235174447, -135577.4117204442, -63553.76554176397, -33252.55611569359, 19791.57564539619, 94127.75565716693, 0.134, -0.07, 1.0, 192.0, 0.0, 0.0, 0.0, 0.0, 0.0, 0.0, 0.0, 0.0, 0.0, 1.625708475698547E9, 0.0, 2021-07-07 21:41:15.698
253.0, -17158.92012821676, 96511.34568588086, -187500.02235174447, -135603.22798529005, -63564.38262038024, -33259.21693554127, 19781.986747024865, 94137.03163111588, 0.134, -0.07, 0.998, 192.0, 4.0, 48.0, 253.0, 208.0, 31.0, 48.0, 0.0, 0.0, 0.0, 1.625708475698635E9, 0.0, 2021-07-07 21:41:15.698
254.0, -17160.887081728826, 96516.10660744985, -187500.02235174447, -135612.59336621684, -63556.403047609696, -33249.98566508122, 19788.06642151671, 94153.01312840142, 0.134, -0.07, 0.998, 192.0, 0.0, 0.0, 0.0, 0.0, 0.0, 0.0, 0.0, 0.0, 0.0, 1.625708475698722E9, 0.0, 2021-07-07 21:41:15.698
255.0, -17123.179688832723, 96512.95501148165, -187500.02235174447, -135620.77410468747, -63546.43416958263, -33240.88850508792, 19795.621311142604, 94167.09472740826, 0.134, -0.07, 0.998, 192.0, 0.0, 0.0, 0.0, 0.0, 0.0, 0.0, 0.0, 0.0, 0.0, 1.6257084756988049E9, 0.0, 2021-07-07 21:41:15.698
0.0, -17114.931895128717, 96510.60807831385, -187500.02235174447, -135615.67790695166, -63535.213593866065, -33227.365699692455, 19808.317101993216, 94179.8352217478, 0.134, -0.07, 0.998, 192.0, 0.0, 0.0, 0.0, 0.0, 0.0, 0.0, 0.0, 0.0, 0.0, 1.625708475698874E9, 0.0, 2021-07-07 21:41:15.698
1.0, -17156.3496776044, 96514.74315103807, -187500.02235174447, -135594.37669448575, -63524.32829431633, -33213.14999021888, 19821.39287249957, 94188.55240208536, 0.134, -0.07, 0.998, 192.0, 0.0, 0.0, 0.0, 0.0, 0.0, 0.0, 0.0, 0.0, 0.0, 1.6257084756988893E9, 0.0, 2021-07-07 21:41:15.698
2.0, -17176.108619702893, 96516.50893885005, -187500.02235174447, -135576.11531926578, -63518.53919250241, -33207.69616457178, 19826.35495976865, 94183.50090783846, 0.134, -0.07, 0.998, 192.0, 0.0, 0.0, 0.0, 0.0, 0.0, 0.0, 0.0, 0.0, 0.0, 1.625708475698903E9, 0.0, 2021-07-07 21:41:15.698
3.0, -17147.2972211, 96510.60807831385, -187500.02235174447, -135573.07548201983, -63527.01050365097, -33217.73209783222, 19815.514363707825, 94167.09472740826, 0.134, -0.07, 0.998, 192.0, 0.0, 0.0, 0.0, 0.0, 0.0, 0.0, 0.0, 0.0, 0.0, 1.6257084756989172E9, 0.0, 2021-07-07 21:41:15.698
4.0, -17145.710247243675, 96503.7237410216, -187500.02235174447, -135586.62063915975, -63551.642126040715, -33241.60376091048, 19790.9721482959, 94152.02965164538, 0.134, -0.07, 0.998, 192.0, 0.0, 0.0, 0.0, 0.0, 0.0, 0.0, 0.0, 0.0, 0.0, 1.6257084756989312E9, 0.0, 2021-07-07 21:41:15.698
5.0, -17179.461381371188, 96504.43899684418, -187500.02235174447, -135607.16189231418, -63578.19599845362, -33267.084749589536, 19766.67580207298, 94140.09382010625, 0.134, -0.07, 0.998, 192.0, 0.0, 0.0, 0.0, 0.0, 0.0, 0.0, 0.0, 0.0, 0.0, 1.6257084756989493E9, 0.0, 2021-07-07 21:41:15.698
6.0, -17174.320480146467, 96507.9258689792, -187500.02235174447, -135628.79838094692, -63585.34855667932, -33276.31602004958, 19759.947926991932, 94145.94997715355, 0.134, -0.07, 0.998, 192.0, 0.0, 0.0, 0.0, 0.0, 0.0, 0.0, 0.0, 0.0, 0.0, 1.625708475698964E9, 0.0, 2021-07-07 21:41:15.698
7.0, -17106.818211891437, 96505.95891546714, -187500.02235174447, -135637.7614304735, -63573.34566990682, -33265.117796077466, 19770.63206084157, 94161.28327384988, 0.134, -0.074, 1.0, 192.0, 4.0, 48.0, 253.0, 176.0, 31.0, 64.0, 0.0, 0.0, 0.0, 1.6257084756989791E9, 0.0, 2021-07-07 21:41:15.698
8.0, -17058.627850845798, 96501.8238427429, -187500.02235174447, -135631.54764551492, -63546.3000591159, -33236.50756317467, 19796.425973942994, 94188.66416080763, 0.134, -0.074, 1.0, 192.0, 0.0, 0.0, 0.0, 0.0, 0.0, 0.0, 0.0, 0.0, 0.0, 1.6257084756989937E9, 0.0, 2021-07-07 21:41:15.698
9.0, -17083.684156380197, 96503.79079625498, -187500.02235174447, -135607.63127894775, -63520.43909078111, -33209.260786683655, 19823.40452950055, 94200.5776406023, 0.134, -0.074, 1.0, 192.0, 0.0, 0.0, 0.0, 0.0, 0.0, 0.0, 0.0, 0.0, 0.0, 1.6257084756990085E9, 0.0, 2021-07-07 21:41:15.699
10.0, -17115.669502695742, 96507.81411025694, -187500.02235174447, -135640.44363980813, -63566.170759936664, -33254.52306920565, 19777.33758417816, 94151.51556152292, 0.134, -0.074, 1.0, 192.0, 0.0, 0.0, 0.0, 0.0, 0.0, 0.0, 0.0, 0.0, 0.0, 1.625708475699025E9, 0.0, 2021-07-07 21:41:15.699
11.0, -17099.28567401, 96507.74705502356, -187500.02235174447, -135619.4553517646, -63556.02306795396, -33246.85642085748, 19786.30063370474, 94163.71961399552, 0.134, -0.074, 1.0, 192.0, 0.0, 0.0, 0.0, 0.0, 0.0, 0.0, 0.0, 0.0, 0.0, 1.6257084756990387E9, 0.0, 2021-07-07 21:41:15.699
12.0, -17069.89313005127, 96505.10954917784, -187500.02235174447, -135606.40193300272, -63554.97253596456, -33245.112984789965, 19791.57564539619, 94165.1724773851, 0.134, -0.074, 1.0, 192.0, 0.0, 0.0, 0.0, 0.0, 0.0, 0.0, 0.0, 0.0, 0.0, 1.6257084756990528E9, 0.0, 2021-07-07 21:41:15.699
13.0, -17083.639452891286, 96506.29419163396, -187500.02235174447, -135617.1084185968, -63576.944300764124, -33261.78738615363, 19775.616499855103, 94153.974253413, 0.134, -0.074, 1.0, 192.0, 0.0, 0.0, 0.0, 0.0, 0.0, 0.0, 0.0, 0.0, 0.0, 1.625708475699067E9, 0.0, 2021-07-07 21:41:15.699
14.0, -17111.087395082403, 96512.84325275937, -187500.02235174447, -135654.1229074148, -63612.48357444806, -33293.61627025798, 19741.261868627294, 94132.20365431353, 0.134, -0.074, 1.0, 192.0, 0.0, 0.0, 0.0, 0.0, 0.0, 0.0, 0.0, 0.0, 0.0, 1.6257084756990814E9, 0.0, 2021-07-07 21:41:15.699
15.0, -17093.071889051425, 96513.55850858195, -187500.02235174447, -135670.86436401182, -63610.53897268045, -33290.39761905642, 19742.312400616695, 94145.79351494236, 0.134, -0.074, 1.0, 192.0, 0.0, 0.0, 0.0, 0.0, 0.0, 0.0, 0.0, 0.0, 0.0, 1.6257084756990976E9, 0.0, 2021-07-07 21:41:15.699
16.0, -17053.866929276817, 96507.99292421257, -187500.02235174447, -135656.29102662695, -63575.87141703027, -33253.85251687199, 19777.851674300633, 94179.61170430324, 0.134, -0.074, 1.0, 192.0, 0.0, 0.0, 0.0, 0.0, 0.0, 0.0, 0.0, 0.0, 0.0, 1.625708475699112E9, 0.0, 2021-07-07 21:41:15.699
17.0, -17063.23231020359, 96507.18826141219, -187500.02235174447, -135692.3220386889, -63591.987024782546, -33268.35879902349, 19760.082037458666, 94160.12098313821, 0.132, -0.07200000000000001, 1.006, 192.0, 4.0, 32.0, 253.0, 192.0, 31.0, 112.0, 0.0, 0.0, 0.0, 1.6257084756991267E9, 0.0, 2021-07-07 21:41:15.699
18.0, -17105.365348501844, 96510.89865099176, -187500.02235174447, -135655.7322330156, -63553.98905920852, -33230.27142647164, 19797.945892565953, 94189.46882360803, 0.132, -0.07200000000000001, 1.006, 192.0, 0.0, 0.0, 0.0, 0.0, 0.0, 0.0, 0.0, 0.0, 0.0, 1.6257084756991408E9, 0.0, 2021-07-07 21:41:15.699
19.0, -17090.412031461245, 96510.71983703611, -187500.02235174447, -135651.530105058, -63563.041515712925, -33239.21212425377, 19787.351165694137, 94169.08403266479, 0.132, -0.07200000000000001, 1.006, 192.0, 0.0, 0.0, 0.0, 0.0, 0.0, 0.0, 0.0, 0.0, 0.0, 1.6257084756991549E9, 0.0, 2021-07-07 21:41:15.699
20.0, -17038.824205258396, 96507.14355792326, -187500.02235174447, -135650.25605562402, -63571.53517860594, -33248.37633948044, 19777.96343302291, 94159.38337557118, 0.132, -0.07200000000000001, 1.006, 192.0, 0.0, 0.0, 0.0, 0.0, 0.0, 0.0, 0.0, 0.0, 0.0, 1.62570847569917E9, 0.0, 2021-07-07 21:41:15.699
21.0, -17021.389844583256, 96503.90255497725, -187500.02235174447, -135647.8197154784, -63581.548760121914, -33254.79129013912, 19771.704944575424, 94153.52721852389, 0.132, -0.07200000000000001, 1.006, 192.0, 0.0, 0.0, 0.0, 0.0, 0.0, 0.0, 0.0, 0.0, 0.0, 1.6257084756991851E9, 0.0, 2021-07-07 21:41:15.699
22.0, -17051.765865298017, 96508.26114514604, -187500.02235174447, -135630.5641687589, -63574.66442282969, -33247.079938302035, 19779.706869090423, 94162.31145409483, 0.132, -0.07200000000000001, 1.006, 192.0, 0.0, 0.0, 0.0, 0.0, 0.0, 0.0, 0.0, 0.0, 0.0, 1.6257084756992044E9, 0.0, 2021-07-07 21:41:15.699
23.0, -17055.09627522186, 96511.65861030325, -187500.02235174447, -135618.7624476865, -63572.764524550985, -33246.23057201273, 19780.936215035465, 94163.4737448065, 0.132, -0.07200000000000001, 1.006, 192.0, 0.0, 0.0, 0.0, 0.0, 0.0, 0.0, 0.0, 0.0, 0.0, 1.6257084756992207E9, 0.0, 2021-07-07 21:41:15.699
24.0, -17026.79896674144, 96508.3282003794, -187500.02235174447, -135610.96168887158, -63570.64110882773, -33244.46478420076, 19783.886645303566, 94163.0714134063, 0.132, -0.07200000000000001, 1.006, 192.0, 0.0, 0.0, 0.0, 0.0, 0.0, 0.0, 0.0, 0.0, 0.0, 1.6257084756992357E9, 0.0, 2021-07-07 21:41:15.699
25.0, -17028.520051064497, 96506.74122652308, -187500.02235174447, -135662.25894239653, -63609.9131238357, -33281.09929336301, 19749.308496631205, 94134.6176427147, 0.132, -0.07200000000000001, 1.006, 192.0, 0.0, 0.0, 0.0, 0.0, 0.0, 0.0, 0.0, 0.0, 0.0, 1.6257084756992497E9, 0.0, 2021-07-07 21:41:15.699
26.0, -17069.870778306817, 96511.4797963476, -187500.02235174447, -135684.81185255194, -63614.91991459369, -33283.088598619535, 19747.63211579706, 94142.32899455179, 0.132, -0.07200000000000001, 1.006, 192.0, 0.0, 0.0, 0.0, 0.0, 0.0, 0.0, 0.0, 0.0, 0.0, 1.625708475699264E9, 0.0, 2021-07-07 21:41:15.699
27.0, -17082.074830779413, 96514.94431673817, -187500.02235174447, -135672.40663437924, -63583.09103048933, -33252.71257790477, 19776.644680100046, 94170.4251373321, 0.136, -0.07, 1.002, 192.0, 4.0, 64.0, 253.0, 208.0, 31.0, 80.0, 0.0, 0.0, 0.0, 1.625708475699278E9, 0.0, 2021-07-07 21:41:15.699
28.0, -17043.13809193827, 96511.79272076997, -187500.02235174447, -135630.38535480326, -63535.32535258834, -33207.89733027188, 19823.49393647837, 94198.65539057915, 0.136, -0.07, 1.002, 192.0, 0.0, 0.0, 0.0, 0.0, 0.0, 0.0, 0.0, 0.0, 0.0, 1.6257084756992931E9, 0.0, 2021-07-07 21:41:15.699
29.0, -17031.22461214359, 96505.4224736002, -187500.02235174447, -135641.65063400872, -63558.61587031077, -33229.64557762689, 19805.67959614749, 94168.68170126459, 0.136, -0.07, 1.002, 192.0, 0.0, 0.0, 0.0, 0.0, 0.0, 0.0, 0.0, 0.0, 0.0, 1.6257084756993077E9, 0.0, 2021-07-07 21:41:15.699
30.0, -17071.457752163144, 96506.31654337843, -187500.02235174447, -135623.99275588905, -63552.759713263484, -33223.47649615723, 19812.34041599517, 94176.34834961276, 0.136, -0.07, 1.002, 192.0, 0.0, 0.0, 0.0, 0.0, 0.0, 0.0, 0.0, 0.0, 0.0, 1.6257084756993392E9, 0.0, 2021-07-07 21:41:15.699
31.0, -17113.657845694765, 96509.8257672579, -187500.02235174447, -135566.61582787227, -63505.932808629615, -33178.39302759088, 19856.440407805494, 94207.84195755029, 0.136, -0.07, 1.002, 192.0, 0.0, 0.0, 0.0, 0.0, 0.0, 0.0, 0.0, 0.0, 0.0, 1.6257084756993568E9, 0.0, 2021-07-07 21:41:15.699
32.0, -17108.00285434757, 96505.73539802259, -187500.02235174447, -135556.8928190342, -63508.99499761999, -33181.56697530353, 19852.864128692643, 94185.75843402845, 0.136, -0.07, 1.002, 192.0, 0.0, 0.0, 0.0, 0.0, 0.0, 0.0, 0.0, 0.0, 0.0, 1.6257084756993752E9, 0.0, 2021-07-07 21:41:15.699
33.0, -17101.677310666717, 96501.30975262044, -187500.02235174447, -135607.54187196994, -63566.97542273706, -33238.206295753276, 19793.83317158618, 94131.80132291334, 0.136, -0.07, 1.002, 192.0, 0.0, 0.0, 0.0, 0.0, 0.0, 0.0, 0.0, 0.0, 0.0, 1.6257084756994195E9, 0.0, 2021-07-07 21:41:15.699
34.0, -17147.274869355544, 96500.66155203123, -187500.02235174447, -135696.0324282685, -63643.150167840744, -33311.810590244604, 19717.501964271305, 94085.22028746847, 0.136, -0.07, 1.002, 192.0, 0.0, 0.0, 0.0, 0.0, 0.0, 0.0, 0.0, 0.0, 0.0, 1.6257084756994743E9, 0.0, 2021-07-07 21:41:15.699
35.0, -17187.038622741537, 96504.30488637745, -187500.02235174447, -135693.7301985896, -63616.506888450014, -33288.02833414416, 19741.753607005314, 94129.74496242344, 0.136, -0.07, 1.002, 192.0, 0.0, 0.0, 0.0, 0.0, 0.0, 0.0, 0.0, 0.0, 0.0, 1.625708475699494E9, 0.0, 2021-07-07 21:41:15.699
36.0, -17169.693669044216, 96504.3272381219, -187500.02235174447, -135704.10140801687, -63604.50400167752, -33276.025447371656, 19751.29780188773, 94142.3736980407, 0.136, -0.07, 1.002, 192.0, 0.0, 0.0, 0.0, 0.0, 0.0, 0.0, 0.0, 0.0, 0.0, 1.6257084756995113E9, 0.0, 2021-07-07 21:41:15.699
37.0, -17137.887136684316, 96500.05805493094, -187500.02235174447, -135717.60186166788, -63605.50983017801, -33274.34906653751, 19753.085941444155, 94144.5194655084, 0.134, -0.066, 1.002, 192.0, 4.0, 48.0, 253.0, 240.0, 31.0, 80.0, 0.0, 0.0, 0.0, 1.6257084756995316E9, 0.0, 2021-07-07 21:41:15.699
38.0, -17150.515872301563, 96500.37097935332, -187500.02235174447, -135709.35406796387, -63604.59340865534, -33271.5998019695, 19756.662220557002, 94147.2240265875, 0.134, -0.066, 1.002, 192.0, 0.0, 0.0, 0.0, 0.0, 0.0, 0.0, 0.0, 0.0, 0.0, 1.6257084756995509E9, 0.0, 2021-07-07 21:41:15.699
39.0, -17175.616881324873, 96504.59545905536, -187500.02235174447, -135690.44449215467, -63596.23385622905, -33264.11196757698, 19765.401752639027, 94154.24247434647, 0.134, -0.066, 1.002, 192.0, 0.0, 0.0, 0.0, 0.0, 0.0, 0.0, 0.0, 0.0, 0.0, 1.6257084756995687E9, 0.0, 2021-07-07 21:41:15.699
40.0, -17163.368125363366, 96504.0813689329, -187500.02235174447, -135668.62918956627, -63585.16974272368, -33255.39478723941, 19774.990651010354, 94159.98687267148, 0.134, -0.066, 1.002, 192.0, 0.0, 0.0, 0.0, 0.0, 0.0, 0.0, 0.0, 0.0, 0.0, 1.625708475699588E9, 0.0, 2021-07-07 21:41:15.699
41.0, -17135.92018317225, 96494.4254153282, -187500.02235174447, -135657.34155861635, -63584.05215550091, -33254.34425525001, 19774.990651010354, 94159.22691335999, 0.134, -0.066, 1.002, 192.0, 0.0, 0.0, 0.0, 0.0, 0.0, 0.0, 0.0, 0.0, 0.0, 1.625708475699607E9, 0.0, 2021-07-07 21:41:15.699
42.0, -17153.3992473363, 96486.89287744676, -187500.02235174447, -135683.69426532916, -63622.385397241764, -33289.7047149783, 19740.211336637894, 94126.50395947743, 0.134, -0.066, 1.002, 192.0, 0.0, 0.0, 0.0, 0.0, 0.0, 0.0, 0.0, 0.0, 0.0, 1.6257084756996276E9, 0.0, 2021-07-07 21:41:15.699
43.0, -17195.755803079104, 96488.77042398101, -187500.02235174447, -135708.9740883081, -63641.38438002877, -33307.45200007582, 19722.70992072939, 94123.77704665388, 0.134, -0.066, 1.002, 192.0, 0.0, 0.0, 0.0, 0.0, 0.0, 0.0, 0.0, 0.0, 0.0, 1.625708475699656E9, 0.0, 2021-07-07 21:41:15.699
44.0, -17202.841306071437, 96491.40792982673, -187500.02235174447, -135693.1714049782, -63607.1638592677, -33272.58327872554, 19755.231708911862, 94157.90816043713, 0.134, -0.066, 1.002, 192.0, 0.0, 0.0, 0.0, 0.0, 0.0, 0.0, 0.0, 0.0, 0.0, 1.6257084756996732E9, 0.0, 2021-07-07 21:41:15.699
45.0, -17169.537206833033, 96487.25050535805, -187500.02235174447, -135707.25300398507, -63602.64880688773, -33267.911764134384, 19758.62917406907, 94156.34353832527, 0.134, -0.066, 1.002, 192.0, 0.0, 0.0, 0.0, 0.0, 0.0, 0.0, 0.0, 0.0, 0.0, 1.6257084756996925E9, 0.0, 2021-07-07 21:41:15.699
46.0, -17156.774360749052, 96481.26023784402, -187500.02235174447, -135700.2345562261, -63587.29315844693, -33251.1479557929, 19775.05770624372, 94166.69239600807, 0.134, -0.066, 1.002, 192.0, 0.0, 0.0, 0.0, 0.0, 0.0, 0.0, 0.0, 0.0, 0.0, 1.6257084756997116E9, 0.0, 2021-07-07 21:41:15.699
47.0, -17192.358337921898, 96482.86956344481, -187500.02235174447, -135681.39203565026, -63578.77714380946, -33241.983740566226, 19782.366726680604, 94164.68073900709, 0.134, -0.07200000000000001, 1.008, 192.0, 4.0, 48.0, 253.0, 192.0, 31.0, 128.0, 0.0, 0.0, 0.0, 1.6257084756997294E9, 0.0, 2021-07-07 21:41:15.699
48.0, -17196.247541457124, 96485.81999371291, -187500.02235174447, -135695.80891082395, -63605.28631273346, -33268.269392045666, 19754.315287389196, 94135.44465725955, 0.134, -0.07200000000000001, 1.008, 192.0, 0.0, 0.0, 0.0, 0.0, 0.0, 0.0, 0.0, 0.0, 0.0, 1.6257084756997476E9, 0.0, 2021-07-07 21:41:15.699
49.0, -17147.63249726683, 96480.14265062126, -187500.02235174447, -135691.80794856645, -63609.75666162452, -33275.69017120483, 19748.503833830815, 94135.13173283718, 0.134, -0.07200000000000001, 1.008, 192.0, 0.0, 0.0, 0.0, 0.0, 0.0, 0.0, 0.0, 0.0, 0.0, 1.625708475699767E9, 0.0, 2021-07-07 21:41:15.699
50.0, -17138.2447645956, 96475.94052266366, -187500.02235174447, -135718.4288762127, -63645.65356321974, -33312.57054955608, 19712.964560146876, 94108.57786042427, 0.134, -0.07200000000000001, 1.008, 192.0, 0.0, 0.0, 0.0, 0.0, 0.0, 0.0, 0.0, 0.0, 0.0, 1.625708475699782E9, 0.0, 2021-07-07 21:41:15.699
51.0, -17177.02504122556, 96479.51680177651, -187500.02235174447, -135730.87879787432, -63664.898415195756, -33333.067099221604, 19694.591426204614, 94107.79554936834, 0.134, -0.07200000000000001, 1.008, 192.0, 0.0, 0.0, 0.0, 0.0, 0.0, 0.0, 0.0, 0.0, 0.0, 1.625708475699797E9, 0.0, 2021-07-07 21:41:15.699
52.0, -17188.98322450915, 96484.85886870133, -187500.02235174447, -135719.8370361134, -63641.36202828432, -33313.4646193343, 19712.763394446778, 94131.75661942443, 0.134, -0.07200000000000001, 1.008, 192.0, 0.0, 0.0, 0.0, 0.0, 0.0, 0.0, 0.0, 0.0, 0.0, 1.6257084756998115E9, 0.0, 2021-07-07 21:41:15.699
53.0, -17148.660677511773, 96483.85304020085, -187500.02235174447, -135697.44058816918, -63598.33492020785, -33272.024485114154, 19750.984877465355, 94167.65352101965, 0.134, -0.07200000000000001, 1.008, 192.0, 0.0, 0.0, 0.0, 0.0, 0.0, 0.0, 0.0, 0.0, 0.0, 1.6257084756998262E9, 0.0, 2021-07-07 21:41:15.699
54.0, -17120.877459153828, 96478.75684246504, -187500.02235174447, -135694.69132360118, -63576.2066931971, -33247.61638016896, 19770.944985263945, 94174.51550656742, 0.134, -0.07200000000000001, 1.008, 192.0, 0.0, 0.0, 0.0, 0.0, 0.0, 0.0, 0.0, 0.0, 0.0, 1.6257084756998413E9, 0.0, 2021-07-07 21:41:15.699
55.0, -17160.797674751007, 96478.60038025385, -187500.02235174447, -135712.4386086987, -63586.57790262436, -33253.71840640526, 19762.16074969301, 94158.73517498198, 0.134, -0.07200000000000001, 1.008, 192.0, 0.0, 0.0, 0.0, 0.0, 0.0, 0.0, 0.0, 0.0, 0.0, 1.6257084756998553E9, 0.0, 2021-07-07 21:41:15.699
56.0, -17199.801468825517, 96482.24371460006, -187500.02235174447, -135699.5863556369, -63584.27567294546, -33249.940961592314, 19766.1170084616, 94154.22012260201, 0.134, -0.07200000000000001, 1.002, 192.0, 4.0, 48.0, 253.0, 192.0, 31.0, 80.0, 0.0, 0.0, 0.0, 1.6257084756998694E9, 0.0, 2021-07-07 21:41:15.699
57.0, -17177.472076114664, 96480.90260993275, -187500.02235174447, -135688.65635259825, -63586.51084739099, -33251.32676974854, 19764.8653107721, 94144.74298295296, 0.134, -0.07200000000000001, 1.002, 192.0, 0.0, 0.0, 0.0, 0.0, 0.0, 0.0, 0.0, 0.0, 0.0, 1.6257084756998842E9, 0.0, 2021-07-07 21:41:15.699
58.0, -17153.10867465838, 96473.63829298476, -187500.02235174447, -135668.80800352193, -63578.82184729837, -33242.40842371088, 19773.0684009872, 94150.66619523361, 0.134, -0.07200000000000001, 1.002, 192.0, 0.0, 0.0, 0.0, 0.0, 0.0, 0.0, 0.0, 0.0, 0.0, 1.625708475699899E9, 0.0, 2021-07-07 21:41:15.699
59.0, -17186.725698319162, 96473.05714762893, -187500.02235174447, -135683.4260443957, -63605.331016222364, -33265.27425828866, 19748.682647786456, 94125.18520655457, 0.134, -0.07200000000000001, 1.002, 192.0, 0.0, 0.0, 0.0, 0.0, 0.0, 0.0, 0.0, 0.0, 0.0, 1.6257084756999135E9, 0.0, 2021-07-07 21:41:15.699
60.0, -17229.17166103979, 96478.53332502047, -187500.02235174447, -135741.29471079048, -63665.90424369625, -33323.902883994924, 19689.18230404643, 94082.42631941156, 0.134, -0.07200000000000001, 1.002, 192.0, 0.0, 0.0, 0.0, 0.0, 0.0, 0.0, 0.0, 0.0, 0.0, 1.625708475699928E9, 0.0, 2021-07-07 21:41:15.699
61.0, -17198.683881602752, 96481.7296244776, -187500.02235174447, -135730.61057694085, -63638.27748754949, -33298.3101365936, 19717.211391593384, 94127.24156704445, 0.134, -0.07200000000000001, 1.002, 192.0, 0.0, 0.0, 0.0, 0.0, 0.0, 0.0, 0.0, 0.0, 0.0, 1.6257084756999428E9, 0.0, 2021-07-07 21:41:15.699
62.0, -17152.10284615789, 96477.5722000089, -187500.02235174447, -135724.97793733812, -63611.276580247475, -33270.146938579914, 19746.067493685186, 94151.00147140045, 0.134, -0.07200000000000001, 1.002, 192.0, 0.0, 0.0, 0.0, 0.0, 0.0, 0.0, 0.0, 0.0, 0.0, 1.6257084756999574E9, 0.0, 2021-07-07 21:41:15.699
63.0, -17155.20973863718, 96475.2252668411, -187500.02235174447, -135736.80201015496, -63607.76735636799, -33264.31313327708, 19750.694304787434, 94150.3756225557, 0.134, -0.07200000000000001, 1.002, 192.0, 0.0, 0.0, 0.0, 0.0, 0.0, 0.0, 0.0, 0.0, 0.0, 1.6257084756999717E9, 0.0, 2021-07-07 21:41:15.699
64.0, -17182.41181163929, 96477.03575814197, -187500.02235174447, -135699.13932074778, -63569.63528032724, -33227.924493303835, 19787.172351738496, 94174.6272652897, 0.134, -0.07200000000000001, 1.002, 192.0, 0.0, 0.0, 0.0, 0.0, 0.0, 0.0, 0.0, 0.0, 0.0, 1.6257084756999912E9, 0.0, 2021-07-07 21:41:15.699
65.0, -17165.938575975728, 96476.45461278614, -187500.02235174447, -135681.70496007265, -63561.9015767457, -33221.26367345615, 19792.20149424094, 94163.56315178433, 0.134, -0.07200000000000001, 1.002, 192.0, 0.0, 0.0, 0.0, 0.0, 0.0, 0.0, 0.0, 0.0, 0.0, 1.6257084757000062E9, 0.0, 2021-07-07 21:41:15.700
66.0, -17129.52758425803, 96471.4701737726, -187500.02235174447, -135692.94788753366, -63585.840295057336, -33243.25779000018, 19770.408543397018, 94135.80228517084, 0.134, -0.07200000000000001, 1.004, 192.0, 4.0, 48.0, 253.0, 192.0, 31.0, 96.0, 0.0, 0.0, 0.0, 1.6257084757000208E9, 0.0, 2021-07-07 21:41:15.700
67.0, -17142.91627918676, 96468.5197435045, -187500.02235174447, -135688.99162876507, -63594.87039981728, -33249.29276100311, 19764.61944158309, 94132.89655839164, 0.134, -0.07200000000000001, 1.004, 192.0, 0.0, 0.0, 0.0, 0.0, 0.0, 0.0, 0.0, 0.0, 0.0, 1.625708475700035E9, 0.0, 2021-07-07 21:41:15.700
68.0, -17189.251445442613, 96471.44782202815, -187500.02235174447, -135680.25209668305, -63597.59731264083, -33252.891391860416, 19762.473674115383, 94133.8129799143, 0.134, -0.07200000000000001, 1.004, 192.0, 0.0, 0.0, 0.0, 0.0, 0.0, 0.0, 0.0, 0.0, 0.0, 1.625708475700049E9, 0.0, 2021-07-07 21:41:15.700
69.0, -17195.241712956635, 96471.8725051728, -187500.02235174447, -135692.70201834466, -63613.60116167083, -33271.53274673614, 19744.592278551136, 94118.03264832887, 0.134, -0.07200000000000001, 1.004, 192.0, 0.0, 0.0, 0.0, 0.0, 0.0, 0.0, 0.0, 0.0, 0.0, 1.625708475700064E9, 0.0, 2021-07-07 21:41:15.700
70.0, -17152.59458453591, 96468.81031618243, -187500.02235174447, -135729.67180367373, -63633.76243516951, -33291.403447556906, 19722.91108642949, 94112.04238081485, 0.134, -0.07200000000000001, 1.004, 192.0, 0.0, 0.0, 0.0, 0.0, 0.0, 0.0, 0.0, 0.0, 0.0, 1.6257084757000787E9, 0.0, 2021-07-07 21:41:15.700
71.0, -17128.29823831299, 96468.87737141579, -187500.02235174447, -135758.2373330876, -63640.60206897284, -33297.349011582024, 19715.42325203696, 94117.02681982837, 0.134, -0.07200000000000001, 1.004, 192.0, 0.0, 0.0, 0.0, 0.0, 0.0, 0.0, 0.0, 0.0, 0.0, 1.6257084757000933E9, 0.0, 2021-07-07 21:41:15.700
72.0, -17152.371067091353, 96473.79475519595, -187500.02235174447, -135768.31796983696, -63630.432025245675, -33287.849520188516, 19722.307589329193, 94130.214349057, 0.134, -0.07200000000000001, 1.004, 192.0, 0.0, 0.0, 0.0, 0.0, 0.0, 0.0, 0.0, 0.0, 0.0, 1.6257084757001078E9, 0.0, 2021-07-07 21:41:15.700
73.0, -17169.760724277585, 96477.08046163089, -187500.02235174447, -135748.35786203836, -63599.474859175076, -33257.18292679583, 19749.844938498132, 94151.8731894342, 0.134, -0.07200000000000001, 1.004, 192.0, 0.0, 0.0, 0.0, 0.0, 0.0, 0.0, 0.0, 0.0, 0.0, 1.6257084757001357E9, 0.0, 2021-07-07 21:41:15.700
74.0, -17140.926973930236, 96474.44295578515, -187500.02235174447, -135720.21701576913, -63577.27957693095, -33235.23351374072, 19771.123799219586, 94157.7740499704, 0.134, -0.07200000000000001, 1.004, 192.0, 0.0, 0.0, 0.0, 0.0, 0.0, 0.0, 0.0, 0.0, 0.0, 1.6257084757001512E9, 0.0, 2021-07-07 21:41:15.700
75.0, -17130.041674380504, 96467.7150807041, -187500.02235174447, -135748.31315854946, -63615.903391349726, -33272.42681651435, 19735.89744995802, 94115.88688086116, 0.134, -0.07200000000000001, 1.004, 192.0, 0.0, 0.0, 0.0, 0.0, 0.0, 0.0, 0.0, 0.0, 0.0, 1.6257084757001655E9, 0.0, 2021-07-07 21:41:15.700
76.0, -17164.664526541776, 96467.44685977064, -187500.02235174447, -135760.91954242226, -63641.80906317342, -33294.84561620303, 19714.931513658943, 94104.86747084469, 0.136, -0.07, 1.002, 192.0, 4.0, 64.0, 253.0, 208.0, 31.0, 80.0, 0.0, 0.0, 0.0, 1.62570847570018E9, 0.0, 2021-07-07 21:41:15.700
77.0, -17179.573140093464, 96468.47504001559, -187500.02235174447, -135707.9906115521, -63601.710033620606, -33255.41713898387, 19755.321115889685, 94145.3688317977, 0.136, -0.07, 1.002, 192.0, 0.0, 0.0, 0.0, 0.0, 0.0, 0.0, 0.0, 0.0, 0.0, 1.6257084757001953E9, 0.0, 2021-07-07 21:41:15.700
78.0, -17141.709284986173, 96464.16115333572, -187500.02235174447, -135683.47074788462, -63589.595388125825, -33242.117851032956, 19766.184063694964, 94145.83821843126, 0.136, -0.07, 1.002, 192.0, 0.0, 0.0, 0.0, 0.0, 0.0, 0.0, 0.0, 0.0, 0.0, 1.6257084757002108E9, 0.0, 2021-07-07 21:41:15.700
79.0, -17116.42946200722, 96459.78021142248, -187500.02235174447, -135762.77473721205, -63671.71569725463, -33317.82320950308, 19686.56714994516, 94078.89474378762, 0.136, -0.07, 1.002, 192.0, 0.0, 0.0, 0.0, 0.0, 0.0, 0.0, 0.0, 0.0, 0.0, 1.625708475700225E9, 0.0, 2021-07-07 21:41:15.700
80.0, -17158.562500305474, 96462.39536552374, -187500.02235174447, -135817.13417972735, -63710.697139584685, -33352.73663434227, 19649.46325414935, 94073.7538425629, 0.136, -0.07, 1.002, 192.0, 0.0, 0.0, 0.0, 0.0, 0.0, 0.0, 0.0, 0.0, 0.0, 1.62570847570024E9, 0.0, 2021-07-07 21:41:15.700
81.0, -17187.172733208266, 96467.8715429153, -187500.02235174447, -135801.21973767516, -63674.80023798946, -33318.22554090328, 19684.600196433094, 94118.59144194025, 0.136, -0.07, 1.002, 192.0, 0.0, 0.0, 0.0, 0.0, 0.0, 0.0, 0.0, 0.0, 0.0, 1.625708475700255E9, 0.0, 2021-07-07 21:41:15.700
82.0, -17158.92012821676, 96466.64219697025, -187500.02235174447, -135768.60854251488, -63626.721635666094, -33272.49387174772, 19733.19288887893, 94155.58357901378, 0.136, -0.07, 1.002, 192.0, 0.0, 0.0, 0.0, 0.0, 0.0, 0.0, 0.0, 0.0, 0.0, 1.6257084757002697E9, 0.0, 2021-07-07 21:41:15.700
83.0, -17129.929915658227, 96461.45659225663, -187500.02235174447, -135754.86221967486, -63616.931571594665, -33261.563868709076, 19745.262830884796, 94151.20263710053, 0.136, -0.07, 1.002, 192.0, 0.0, 0.0, 0.0, 0.0, 0.0, 0.0, 0.0, 0.0, 0.0, 1.6257084757002845E9, 0.0, 2021-07-07 21:41:15.700
84.0, -17148.146587389303, 96462.70828994612, -187500.02235174447, -135743.57458872494, -63614.60699017132, -33258.99341809671, 19748.503833830815, 94140.13852359516, 0.136, -0.07, 1.002, 192.0, 0.0, 0.0, 0.0, 0.0, 0.0, 0.0, 0.0, 0.0, 0.0, 1.6257084757003007E9, 0.0, 2021-07-07 21:41:15.700
85.0, -17183.060012228492, 96469.72673770509, -187500.02235174447, -135746.41326027075, -63627.280429277474, -33273.41029327039, 19733.81873772368, 94126.36984901069, 0.136, -0.07, 1.002, 192.0, 0.0, 0.0, 0.0, 0.0, 0.0, 0.0, 0.0, 0.0, 0.0, 1.62570847570033E9, 0.0, 2021-07-07 21:41:15.700
86.0, -17158.070761927458, 96469.771441194, -187500.02235174447, -135720.7311058916, -63609.600199413326, -33258.43462448533, 19748.99557220883, 94136.85281716024, 0.138, -0.068, 0.998, 192.0, 4.0, 80.0, 253.0, 224.0, 31.0, 48.0, 0.0, 0.0, 0.0, 1.6257084757003548E9, 0.0, 2021-07-07 21:41:15.700
87.0, -17110.10391832637, 96463.64706321324, -187500.02235174447, -135757.47737377614, -63649.78863594397, -33297.10314239301, 19709.723557200858, 94099.36894170869, 0.138, -0.068, 0.998, 192.0, 0.0, 0.0, 0.0, 0.0, 0.0, 0.0, 0.0, 0.0, 0.0, 1.6257084757003744E9, 0.0, 2021-07-07 21:41:15.700
88.0, -17112.406148005266, 96463.95998763562, -187500.02235174447, -135801.5103103531, -63678.51062756904, -33324.17110492839, 19680.62158592005, 94088.32717994777, 0.138, -0.068, 0.998, 192.0, 0.0, 0.0, 0.0, 0.0, 0.0, 0.0, 0.0, 0.0, 0.0, 1.6257084757003915E9, 0.0, 2021-07-07 21:41:15.700
89.0, -17149.53239554553, 96468.43033652668, -187500.02235174447, -135809.556938357, -63667.35710708584, -33312.57054955608, 19690.47870522484, 94108.28728774635, 0.138, -0.068, 0.998, 192.0, 0.0, 0.0, 0.0, 0.0, 0.0, 0.0, 0.0, 0.0, 0.0, 1.6257084757004068E9, 0.0, 2021-07-07 21:41:15.700
90.0, -17160.082418928436, 96468.09506035985, -187500.02235174447, -135789.3509613694, -63630.7673014125, -33275.64546771592, 19725.32507483066, 94138.99858462795, 0.138, -0.068, 0.998, 192.0, 0.0, 0.0, 0.0, 0.0, 0.0, 0.0, 0.0, 0.0, 0.0, 1.625708475700421E9, 0.0, 2021-07-07 21:41:15.700
91.0, -17167.413791109775, 96462.32831029038, -187500.02235174447, -135775.291714107, -63613.60116167083, -33257.6523134294, 19742.535918061247, 94143.22306433, 0.138, -0.068, 0.998, 192.0, 0.0, 0.0, 0.0, 0.0, 0.0, 0.0, 0.0, 0.0, 0.0, 1.6257084757004352E9, 0.0, 2021-07-07 21:41:15.700
92.0, -17193.386518166844, 96458.46145849962, -187500.02235174447, -135801.19738593072, -63650.50389176654, -33292.811607457596, 19707.868362411067, 94106.74501737894, 0.138, -0.068, 0.998, 192.0, 0.0, 0.0, 0.0, 0.0, 0.0, 0.0, 0.0, 0.0, 0.0, 1.6257084757004497E9, 0.0, 2021-07-07 21:41:15.700
93.0, -17227.763501139107, 96460.94250213414, -187500.02235174447, -135818.11765648337, -63681.885740981794, -33322.18179967187, 19679.839274864113, 94090.89763056012, 0.138, -0.068, 0.998, 192.0, 0.0, 0.0, 0.0, 0.0, 0.0, 0.0, 0.0, 0.0, 0.0, 1.625708475700465E9, 0.0, 2021-07-07 21:41:15.700
94.0, -17210.530306164062, 96461.76951667899, -187500.02235174447, -135809.13225521235, -63685.305557883454, -33327.21094217431, 19676.330050984627, 94098.07254053028, 0.138, -0.068, 0.998, 192.0, 0.0, 0.0, 0.0, 0.0, 0.0, 0.0, 0.0, 0.0, 0.0, 1.6257084757004805E9, 0.0, 2021-07-07 21:41:15.700
95.0, -17153.980392692138, 96458.17088582169, -187500.02235174447, -135827.23716822115, -63711.6359128518, -33353.54129714266, 19650.647896605482, 94082.94040953403, 0.138, -0.068, 0.998, 192.0, 0.0, 0.0, 0.0, 0.0, 0.0, 0.0, 0.0, 0.0, 0.0, 1.6257084757004948E9, 0.0, 2021-07-07 21:41:15.700
96.0, -17137.261287839567, 96456.36039452082, -187500.02235174447, -135849.99124407663, -63725.00225603608, -33363.66663738092, 19641.282515678708, 94087.67897935856, 0.138, -0.07200000000000001, 1.0, 192.0, 4.0, 80.0, 253.0, 192.0, 31.0, 64.0, 0.0, 0.0, 0.0, 1.625708475700519E9, 0.0, 2021-07-07 21:41:15.700
97.0, -17176.980337736648, 96458.37205152179, -187500.02235174447, -135846.0126335636, -63702.47169762513, -33339.75027081374, 19667.523463669237, 94117.1162268062, 0.138, -0.07200000000000001, 1.0, 192.0, 0.0, 0.0, 0.0, 0.0, 0.0, 0.0, 0.0, 0.0, 0.0, 1.625708475700534E9, 0.0, 2021-07-07 21:41:15.700
98.0, -17206.4622886732, 96461.54599923444, -187500.02235174447, -135821.20219721823, -63659.735162226585, -33298.39954357142, 19712.025786879753, 94149.21333184402, 0.138, -0.07200000000000001, 1.0, 192.0, 0.0, 0.0, 0.0, 0.0, 0.0, 0.0, 0.0, 0.0, 0.0, 1.6257084757005484E9, 0.0, 2021-07-07 21:41:15.700
99.0, -17210.239733486145, 96458.37205152179, -187500.02235174447, -135786.71345552368, -63621.51367920801, -33258.79225239662, 19751.633078054558, 94161.3726808277, 0.138, -0.07200000000000001, 1.0, 192.0, 0.0, 0.0, 0.0, 0.0, 0.0, 0.0, 0.0, 0.0, 0.0, 1.6257084757005644E9, 0.0, 2021-07-07 21:41:15.700
100.0, -17216.900553333828, 96452.82881889687, -187500.02235174447, -135817.06712449397, -63664.11610413982, -33296.231424359255, 19712.919856657965, 94111.75180813692, 0.138, -0.07200000000000001, 1.0, 192.0, 0.0, 0.0, 0.0, 0.0, 0.0, 0.0, 0.0, 0.0, 0.0, 1.625708475700579E9, 0.0, 2021-07-07 21:41:15.700
101.0, -17246.404856014833, 96453.34290901935, -187500.02235174447, -135794.3130486385, -63653.007287145534, -33283.62504048646, 19727.24732485382, 94125.14050306565, 0.138, -0.07200000000000001, 1.0, 192.0, 0.0, 0.0, 0.0, 0.0, 0.0, 0.0, 0.0, 0.0, 0.0, 1.625708475700594E9, 0.0, 2021-07-07 21:41:15.700
102.0, -17249.37763802739, 96455.53337997597, -187500.02235174447, -135774.6435135178, -63647.01701963151, -33277.09833110551, 19734.891621457533, 94125.9675176105, 0.138, -0.07200000000000001, 1.0, 192.0, 0.0, 0.0, 0.0, 0.0, 0.0, 0.0, 0.0, 0.0, 0.0, 1.6257084757006085E9, 0.0, 2021-07-07 21:41:15.700
103.0, -17206.372881695377, 96451.33125201837, -187500.02235174447, -135793.62014456035, -63678.84590373587, -33309.12838090997, 19704.62735946505, 94097.29022947434, 0.138, -0.07200000000000001, 1.0, 192.0, 0.0, 0.0, 0.0, 0.0, 0.0, 0.0, 0.0, 0.0, 0.0, 1.6257084757006233E9, 0.0, 2021-07-07 21:41:15.700
104.0, -17158.808369494483, 96443.88812111475, -187500.02235174447, -135817.62591810536, -63703.835154036904, -33331.88245676547, 19681.627414420534, 94086.85196481372, 0.138, -0.07200000000000001, 1.0, 192.0, 0.0, 0.0, 0.0, 0.0, 0.0, 0.0, 0.0, 0.0, 0.0, 1.625708475700638E9, 0.0, 2021-07-07 21:41:15.700
105.0, -17171.302994645, 96444.17869379267, -187500.02235174447, -135844.8726945964, -63714.78750882, -33339.95143651384, 19671.412667204462, 94090.91998230458, 0.138, -0.07200000000000001, 1.0, 192.0, 0.0, 0.0, 0.0, 0.0, 0.0, 0.0, 0.0, 0.0, 0.0, 1.6257084757006536E9, 0.0, 2021-07-07 21:41:15.700
106.0, -17183.81997153997, 96449.1631328062, -187500.02235174447, -135836.066107281, -63685.68553753919, -33309.79893324363, 19699.352347773594, 94120.15606405212, 0.138, -0.074, 1.0, 192.0, 4.0, 80.0, 253.0, 176.0, 31.0, 64.0, 0.0, 0.0, 0.0, 1.62570847617782E9, 0.0, 2021-07-07 21:41:16.177
107.0, -17155.030924681538, 96447.35264150532, -187500.02235174447, -135843.64334865133, -63676.18604614569, -33298.28778484914, 19706.057871110188, 94123.55352920933, 0.138, -0.074, 1.0, 192.0, 0.0, 0.0, 0.0, 0.0, 0.0, 0.0, 0.0, 0.0, 0.0, 1.6257084761779568E9, 0.0, 2021-07-07 21:41:16.177
108.0, -17131.82981393693, 96441.18356003566, -187500.02235174447, -135835.8649415809, -63667.51356929703, -33287.49189227723, 19715.155031103495, 94126.77218041089, 0.138, -0.074, 1.0, 192.0, 0.0, 0.0, 0.0, 0.0, 0.0, 0.0, 0.0, 0.0, 0.0, 1.6257084761780384E9, 0.0, 2021-07-07 21:41:16.178
109.0, -17142.938630931214, 96441.58589143585, -187500.02235174447, -135807.36646740037, -63650.68270572218, -33270.370456024466, 19733.461109812393, 94139.84795091725, 0.138, -0.074, 1.0, 192.0, 0.0, 0.0, 0.0, 0.0, 0.0, 0.0, 0.0, 0.0, 0.0, 1.6257084761781447E9, 0.0, 2021-07-07 21:41:16.178
110.0, -17159.747142761607, 96447.33028976087, -187500.02235174447, -135800.9068132528, -63657.41058080323, -33278.37238053946, 19726.24149635333, 94123.55352920933, 0.138, -0.074, 1.0, 192.0, 0.0, 0.0, 0.0, 0.0, 0.0, 0.0, 0.0, 0.0, 0.0, 1.6257084761782632E9, 0.0, 2021-07-07 21:41:16.178
111.0, -17133.148566859792, 96449.09607757285, -187500.02235174447, -135835.61907239188, -63705.06449998194, -33326.20511367382, 19678.14054228551, 94079.63235135465, 0.138, -0.074, 1.0, 192.0, 0.0, 0.0, 0.0, 0.0, 0.0, 0.0, 0.0, 0.0, 0.0, 1.6257084761783924E9, 0.0, 2021-07-07 21:41:16.178
112.0, -17095.396470474778, 96443.99987983702, -187500.02235174447, -135837.4519154372, -63717.98380827711, -33336.97865450128, 19669.0433822922, 94086.53904039133, 0.138, -0.074, 1.0, 192.0, 0.0, 0.0, 0.0, 0.0, 0.0, 0.0, 0.0, 0.0, 0.0, 1.6257084761784892E9, 0.0, 2021-07-07 21:41:16.178
113.0, -17110.61800844884, 96444.2681007705, -187500.02235174447, -135804.77366504355, -63690.08883119689, -33307.42964833137, 19699.575865218147, 94117.85383437322, 0.138, -0.074, 1.0, 192.0, 0.0, 0.0, 0.0, 0.0, 0.0, 0.0, 0.0, 0.0, 0.0, 1.6257084761785836E9, 0.0, 2021-07-07 21:41:16.178
114.0, -17147.319572844455, 96449.1631328062, -187500.02235174447, -135817.49180763864, -63688.881836996305, -33307.831979731556, 19699.553513473693, 94112.60117442622, 0.138, -0.074, 1.0, 192.0, 0.0, 0.0, 0.0, 0.0, 0.0, 0.0, 0.0, 0.0, 0.0, 1.6257084761786785E9, 0.0, 2021-07-07 21:41:16.178
115.0, -17140.3458285744, 96451.82299039638, -187500.02235174447, -135823.88440655285, -63673.50383681105, -33294.197415613824, 19714.08214736964, 94115.95393609452, 0.132, -0.066, 0.998, 192.0, 4.0, 32.0, 253.0, 240.0, 31.0, 48.0, 0.0, 0.0, 0.0, 1.6257084761787753E9, 0.0, 2021-07-07 21:41:16.178
116.0, -17089.450906449667, 96447.6655659277, -187500.02235174447, -135895.7229132322, -63725.315180458456, -33342.25366619273, 19662.98605954481, 94071.94335126202, 0.132, -0.066, 0.998, 192.0, 0.0, 0.0, 0.0, 0.0, 0.0, 0.0, 0.0, 0.0, 0.0, 1.625708476178867E9, 0.0, 2021-07-07 21:41:16.178
117.0, -17094.77062163003, 96444.73748740405, -187500.02235174447, -135908.59751803847, -63721.33656994541, -33332.91063701041, 19671.52442592674, 94094.6080201397, 0.132, -0.066, 0.998, 192.0, 0.0, 0.0, 0.0, 0.0, 0.0, 0.0, 0.0, 0.0, 0.0, 1.62570847617896E9, 0.0, 2021-07-07 21:41:16.178
118.0, -17133.215622093157, 96448.04554558345, -187500.02235174447, -135843.97862481818, -63655.42127554671, -33267.50943273419, 19737.462072069895, 94150.73325046698, 0.132, -0.066, 0.998, 192.0, 0.0, 0.0, 0.0, 0.0, 0.0, 0.0, 0.0, 0.0, 0.0, 1.6257084761790462E9, 0.0, 2021-07-07 21:41:16.179
119.0, -17129.43817728021, 96449.1184293173, -187500.02235174447, -135804.9077755103, -63629.247382789545, -33242.96721732226, 19762.026639226275, 94154.51069527993, 0.132, -0.066, 0.998, 192.0, 0.0, 0.0, 0.0, 0.0, 0.0, 0.0, 0.0, 0.0, 0.0, 1.6257084761791308E9, 0.0, 2021-07-07 21:41:16.179
120.0, -17088.333319226902, 96440.98239433556, -187500.02235174447, -135785.21588864518, -63620.93253385217, -33236.70872887477, 19768.463941629405, 94142.35134629624, 0.132, -0.066, 0.998, 192.0, 0.0, 0.0, 0.0, 0.0, 0.0, 0.0, 0.0, 0.0, 0.0, 1.6257084761792164E9, 0.0, 2021-07-07 21:41:16.179
121.0, -17087.036918048492, 96432.86871109829, -187500.02235174447, -135809.3557726569, -63656.94119416967, -33269.83401415754, 19734.511641801793, 94106.45444470101, 0.132, -0.066, 0.998, 192.0, 0.0, 0.0, 0.0, 0.0, 0.0, 0.0, 0.0, 0.0, 0.0, 1.6257084761792805E9, 0.0, 2021-07-07 21:41:16.179
122.0, -17133.372084304345, 96433.87453959878, -187500.02235174447, -135805.42186563276, -63665.390153573775, -33276.67364796086, 19727.85082195411, 94101.69352313204, 0.132, -0.066, 0.998, 192.0, 0.0, 0.0, 0.0, 0.0, 0.0, 0.0, 0.0, 0.0, 0.0, 1.6257084761793025E9, 0.0, 2021-07-07 21:41:16.179
123.0, -17154.047447925503, 96435.08153379936, -187500.02235174447, -135804.63955457683, -63675.58254904539, -33287.96127891079, 19717.546667760216, 94095.77031085138, 0.132, -0.066, 0.998, 192.0, 0.0, 0.0, 0.0, 0.0, 0.0, 0.0, 0.0, 0.0, 0.0, 1.6257084761793227E9, 0.0, 2021-07-07 21:41:16.179
124.0, -17120.76570043155, 96429.73946687454, -187500.02235174447, -135816.77655181606, -63688.814781762936, -33303.272223862674, 19703.84504840911, 94085.39910142412, 0.132, -0.066, 0.998, 192.0, 0.0, 0.0, 0.0, 0.0, 0.0, 0.0, 0.0, 0.0, 0.0, 1.6257084761793566E9, 0.0, 2021-07-07 21:41:16.179
125.0, -17106.86291538035, 96423.34686796032, -187500.02235174447, -135874.60051472194, -63732.73595961762, -33343.86299179352, 19661.332030455116, 94060.63336856764, 0.132, -0.064, 1.002, 192.0, 4.0, 32.0, 254.0, 0.0, 31.0, 80.0, 0.0, 0.0, 0.0, 1.6257084761793766E9, 0.0, 2021-07-07 21:41:16.179
126.0, -17116.63062770732, 96426.18553950614, -187500.02235174447, -135907.8822622159, -63748.27042201405, -33357.7210733558, 19647.74216982629, 94067.8529820267, 0.132, -0.064, 1.002, 192.0, 0.0, 0.0, 0.0, 0.0, 0.0, 0.0, 0.0, 0.0, 0.0, 1.6257084761793962E9, 0.0, 2021-07-07 21:41:16.179
127.0, -17052.90580426524, 96433.1592837762, -187500.02235174447, -135893.24186959767, -63712.150002974275, -33323.74642178374, 19680.867455109055, 94108.13082553516, 0.132, -0.064, 1.002, 192.0, 0.0, 0.0, 0.0, 0.0, 0.0, 0.0, 0.0, 0.0, 0.0, 1.625708476179417E9, 0.0, 2021-07-07 21:41:16.179
128.0, -16919.622352078244, 96434.07570529888, -187500.02235174447, -135851.37705223289, -63656.20358660264, -33270.12458683546, 19734.779862735257, 94150.50973302242, 0.132, -0.064, 1.002, 192.0, 0.0, 0.0, 0.0, 0.0, 0.0, 0.0, 0.0, 0.0, 0.0, 1.62570847617945E9, 0.0, 2021-07-07 21:41:16.179
129.0, -16788.55172259232, 96428.82304535188, -187500.02235174447, -135874.33229378847, -63684.50089508306, -33297.68428774885, 19708.114231600077, 94110.23188951396, 0.132, -0.064, 1.002, 192.0, 0.0, 0.0, 0.0, 0.0, 0.0, 0.0, 0.0, 0.0, 0.0, 1.625708476179469E9, 0.0, 2021-07-07 21:41:16.179
130.0, -16837.412635971625, 96429.40419070772, -187500.02235174447, -135892.14663411936, -63711.56885761844, -33324.50638109522, 19682.588539432116, 94089.48947065944, 0.132, -0.064, 1.002, 192.0, 0.0, 0.0, 0.0, 0.0, 0.0, 0.0, 0.0, 0.0, 0.0, 1.6257084761794877E9, 0.0, 2021-07-07 21:41:16.179
131.0, -17013.007940412517, 96434.54509193244, -187500.02235174447, -135890.71612247423, -63719.079043755424, -33332.2177329323, 19673.42432420544, 94088.61775262568, 0.132, -0.064, 1.002, 192.0, 0.0, 0.0, 0.0, 0.0, 0.0, 0.0, 0.0, 0.0, 0.0, 1.625708476179505E9, 0.0, 2021-07-07 21:41:16.179
132.0, -17256.50784450863, 96434.4556849546, -187500.02235174447, -135869.8172414085, -63708.28315118351, -33321.958282227315, 19683.124981299043, 94103.90634583311, 0.132, -0.064, 1.002, 192.0, 0.0, 0.0, 0.0, 0.0, 0.0, 0.0, 0.0, 0.0, 0.0, 1.625708476179524E9, 0.0, 2021-07-07 21:41:16.179
133.0, -17633.626476958572, 96428.80069360742, -187500.02235174447, -135912.4196663403, -63757.05465758499, -33367.1758612604, 19636.78981504319, 94064.12024070266, 0.132, -0.064, 1.002, 192.0, 0.0, 0.0, 0.0, 0.0, 0.0, 0.0, 0.0, 0.0, 0.0, 1.625708476179542E9, 0.0, 2021-07-07 21:41:16.179
134.0, -17759.51150173086, 96429.49359768553, -187500.02235174447, -135993.8023679021, -63823.037007217055, -33430.47600155783, 19572.573253223094, 94032.06783915375, 0.132, -0.064, 1.002, 192.0, 0.0, 0.0, 0.0, 0.0, 0.0, 0.0, 0.0, 0.0, 0.0, 1.625708476179561E9, 0.0, 2021-07-07 21:41:16.179
135.0, -17615.43215697195, 96435.79678962193, -187500.02235174447, -135966.35442571098, -63772.74558219261, -33381.4809777118, 19623.937561981387, 94096.9102498186, 0.128, -0.07, 0.998, 192.0, 4.0, 0.0, 253.0, 208.0, 31.0, 48.0, 0.0, 0.0, 0.0, 1.6257084761795788E9, 0.0, 2021-07-07 21:41:16.179
136.0, -17479.824123361603, 96441.27296701349, -187500.02235174447, -135975.65275140438, -63759.66981168626, -33367.51113742723, 19636.253373176263, 94105.89565108964, 0.128, -0.07, 0.998, 192.0, 0.0, 0.0, 0.0, 0.0, 0.0, 0.0, 0.0, 0.0, 0.0, 1.6257084761795974E9, 0.0, 2021-07-07 21:41:16.179
137.0, -17467.530663911184, 96440.84828386884, -187500.02235174447, -135921.3827158669, -63691.40758411975, -33298.332488338056, 19708.27069381126, 94162.66908200612, 0.128, -0.07, 0.998, 192.0, 0.0, 0.0, 0.0, 0.0, 0.0, 0.0, 0.0, 0.0, 0.0, 1.625708476179617E9, 0.0, 2021-07-07 21:41:16.179
138.0, -17444.39660839994, 96442.59171993635, -187500.02235174447, -135897.30988708854, -63673.637947277784, -33278.57354623956, 19728.72253998787, 94152.67785223458, 0.128, -0.07, 0.998, 192.0, 0.0, 0.0, 0.0, 0.0, 0.0, 0.0, 0.0, 0.0, 0.0, 1.625708476179636E9, 0.0, 2021-07-07 21:41:16.179
139.0, -17333.688418112804, 96447.95613860562, -187500.02235174447, -135896.5275760326, -63683.33860437138, -33288.765941711186, 19717.457260782394, 94128.09093333375, 0.128, -0.07, 0.998, 192.0, 0.0, 0.0, 0.0, 0.0, 0.0, 0.0, 0.0, 0.0, 0.0, 1.6257084761796672E9, 0.0, 2021-07-07 21:41:16.179
140.0, -17157.333154360433, 96449.63251943977, -187500.02235174447, -135870.30897978653, -63666.77596173, -33275.86898516047, 19728.946057432422, 94130.46021824602, 0.128, -0.07, 0.998, 192.0, 0.0, 0.0, 0.0, 0.0, 0.0, 0.0, 0.0, 0.0, 0.0, 1.6257084761796868E9, 0.0, 2021-07-07 21:41:16.179
141.0, -16979.92735861866, 96446.68208917166, -187500.02235174447, -135859.9154186148, -63665.45720880714, -33275.19843282681, 19725.548592275216, 94124.42524724308, 0.128, -0.07, 0.998, 192.0, 0.0, 0.0, 0.0, 0.0, 0.0, 0.0, 0.0, 0.0, 0.0, 1.6257084761797063E9, 0.0, 2021-07-07 21:41:16.179
142.0, -16946.176224491148, 96445.85507462682, -187500.02235174447, -135884.41293053783, -63699.588322590396, -33306.62498553097, 19691.261016280772, 94092.93163930555, 0.128, -0.07, 0.998, 192.0, 0.0, 0.0, 0.0, 0.0, 0.0, 0.0, 0.0, 0.0, 0.0, 1.6257084761797245E9, 0.0, 2021-07-07 21:41:16.179
143.0, -16965.3540212338, 96448.58198745036, -187500.02235174447, -135918.34287862098, -63728.84675608239, -33334.743480055746, 19661.71201011086, 94076.81603155327, 0.128, -0.07, 0.998, 192.0, 0.0, 0.0, 0.0, 0.0, 0.0, 0.0, 0.0, 0.0, 0.0, 1.6257084761797438E9, 0.0, 2021-07-07 21:41:16.179
144.0, -16980.016765596483, 96451.48771422956, -187500.02235174447, -135900.23796561218, -63688.47950559611, -33296.857273204005, 19698.882961140032, 94116.22215702798, 0.128, -0.07, 0.998, 192.0, 0.0, 0.0, 0.0, 0.0, 0.0, 0.0, 0.0, 0.0, 0.0, 1.6257084761797671E9, 0.0, 2021-07-07 21:41:16.179
145.0, -16991.818486668883, 96447.8667316278, -187500.02235174447, -135921.7850472671, -63687.98776721809, -33296.34318308153, 19697.094821583607, 94108.39904646862, 0.13, -0.07200000000000001, 0.998, 192.0, 4.0, 16.0, 253.0, 192.0, 31.0, 48.0, 0.0, 0.0, 0.0, 1.6257084761797895E9, 0.0, 2021-07-07 21:41:16.179
146.0, -17033.593897055853, 96441.83176062486, -187500.02235174447, -135969.97540831275, -63720.42014842274, -33324.79695377314, 19664.41657118995, 94085.04147351283, 0.13, -0.07200000000000001, 0.998, 192.0, 0.0, 0.0, 0.0, 0.0, 0.0, 0.0, 0.0, 0.0, 0.0, 1.625708476179813E9, 0.0, 2021-07-07 21:41:16.179
