%OpenBCI Raw EEG Data
%Number of channels = 8
%Sample Rate = 250 Hz
%Board = OpenBCI_GUI$BoardCytonSerial
Sample Index, EXG Channel 0, EXG Channel 1, EXG Channel 2, EXG Channel 3, EXG Channel 4, EXG Channel 5, EXG Channel 6, EXG Channel 7, Accel Channel 0, Accel Channel 1, Accel Channel 2, Other, Other, Other, Other, Other, Other, Other, Analog Channel 0, Analog Channel 1, Analog Channel 2, Timestamp, Other, Timestamp (Formatted)
151.0, 22312.070108898894, 0.0, 0.0, 0.0, 0.0, 0.0, 0.0, 0.0, 0.026000000000000002, -0.044, 1.024, 192.0, 0.0, 208.0, 254.0, 160.0, 32.0, 0.0, 0.0, 0.0, 0.0, 1.621555187167828E9, 0.0, 2021-05-20 19:59:47.167
152.0, 22347.810548282927, 0.0, 0.0, 0.0, 0.0, 0.0, 0.0, 0.0, 0.026000000000000002, -0.044, 1.024, 192.0, 0.0, 0.0, 0.0, 0.0, 0.0, 0.0, 0.0, 0.0, 0.0, 1.621555187167832E9, 0.0, 2021-05-20 19:59:47.167
153.0, 22349.911612261727, 0.0, 0.0, 0.0, 0.0, 0.0, 0.0, 0.0, 0.026000000000000002, -0.044, 1.024, 192.0, 0.0, 0.0, 0.0, 0.0, 0.0, 0.0, 0.0, 0.0, 0.0, 1.621555187167834E9, 0.0, 2021-05-20 19:59:47.167
154.0, 22314.59585602234, 0.0, 0.0, 0.0, 0.0, 0.0, 0.0, 0.0, 0.026000000000000002, -0.044, 1.024, 192.0, 0.0, 0.0, 0.0, 0.0, 0.0, 0.0, 0.0, 0.0, 0.0, 1.621555187167836E9, 0.0, 2021-05-20 19:59:47.167
0.0, 0.0, 0.0, 0.0, 0.0, 0.0, 0.0, 0.0, 0.0, 0.026000000000000002, -0.04, 1.018, 192.0, 0.0, 208.0, 254.0, 192.0, 31.0, 208.0, 0.0, 0.0, 0.0, 1.621555187252635E9, 0.0, 2021-05-20 19:59:47.252
3.0, 22523.159983534813, 0.0, 0.0, 0.0, 0.0, 0.0, 0.0, 0.0, 0.026000000000000002, -0.04, 1.018, 192.0, 0.0, 0.0, 0.0, 0.0, 0.0, 0.0, 0.0, 0.0, 0.0, 1.621555187252643E9, 0.0, 2021-05-20 19:59:47.252
4.0, 22478.30003241301, 0.0, 0.0, 0.0, 0.0, 0.0, 0.0, 0.0, 0.026000000000000002, -0.04, 1.018, 192.0, 0.0, 0.0, 0.0, 0.0, 0.0, 0.0, 0.0, 0.0, 0.0, 1.621555187260623E9, 0.0, 2021-05-20 19:59:47.260
5.0, 22504.02689028107, 0.0, 0.0, 0.0, 0.0, 0.0, 0.0, 0.0, 0.026000000000000002, -0.04, 1.018, 192.0, 0.0, 0.0, 0.0, 0.0, 0.0, 0.0, 0.0, 0.0, 0.0, 1.621555187260629E9, 0.0, 2021-05-20 19:59:47.260
6.0, 22511.53707641805, 0.0, 0.0, 0.0, 0.0, 0.0, 0.0, 0.0, 0.026000000000000002, -0.04, 1.018, 192.0, 0.0, 0.0, 0.0, 0.0, 0.0, 0.0, 0.0, 0.0, 0.0, 1.621555187267171E9, 0.0, 2021-05-20 19:59:47.267
7.0, 22491.621672108373, 0.0, 0.0, 0.0, 0.0, 0.0, 0.0, 0.0, 0.026000000000000002, -0.04, 1.018, 192.0, 0.0, 0.0, 0.0, 0.0, 0.0, 0.0, 0.0, 0.0, 0.0, 1.621555187267179E9, 0.0, 2021-05-20 19:59:47.267
8.0, 22460.664506037774, 0.0, 0.0, 0.0, 0.0, 0.0, 0.0, 0.0, 0.026000000000000002, -0.04, 1.018, 192.0, 0.0, 0.0, 0.0, 0.0, 0.0, 0.0, 0.0, 0.0, 0.0, 1.621555187274259E9, 0.0, 2021-05-20 19:59:47.274
9.0, 22442.425482562245, 0.0, 0.0, 0.0, 0.0, 0.0, 0.0, 0.0, 0.026000000000000002, -0.04, 1.018, 192.0, 0.0, 0.0, 0.0, 0.0, 0.0, 0.0, 0.0, 0.0, 0.0, 1.621555187282228E9, 0.0, 2021-05-20 19:59:47.282
10.0, 22485.340831916434, 0.0, 0.0, 0.0, 0.0, 0.0, 0.0, 0.0, 0.026000000000000002, -0.04, 1.018, 192.0, 0.0, 0.0, 0.0, 0.0, 0.0, 0.0, 0.0, 0.0, 0.0, 1.621555187282234E9, 0.0, 2021-05-20 19:59:47.282
11.0, 22502.93165480276, 0.0, 0.0, 0.0, 0.0, 0.0, 0.0, 0.0, 0.024, -0.042, 1.022, 192.0, 0.0, 192.0, 254.0, 176.0, 31.0, 240.0, 0.0, 0.0, 0.0, 1.621555187289407E9, 0.0, 2021-05-20 19:59:47.289
12.0, 22471.3039363985, 0.0, 0.0, 0.0, 0.0, 0.0, 0.0, 0.0, 0.024, -0.042, 1.022, 192.0, 0.0, 0.0, 0.0, 0.0, 0.0, 0.0, 0.0, 0.0, 0.0, 1.621555187289415E9, 0.0, 2021-05-20 19:59:47.289
13.0, 22392.491685449088, 0.0, 0.0, 0.0, 0.0, 0.0, 0.0, 0.0, 0.024, -0.042, 1.022, 192.0, 0.0, 0.0, 0.0, 0.0, 0.0, 0.0, 0.0, 0.0, 0.0, 1.621555187296845E9, 0.0, 2021-05-20 19:59:47.296
14.0, 22389.965938325637, 0.0, 0.0, 0.0, 0.0, 0.0, 0.0, 0.0, 0.024, -0.042, 1.022, 192.0, 0.0, 0.0, 0.0, 0.0, 0.0, 0.0, 0.0, 0.0, 0.0, 1.621555187296852E9, 0.0, 2021-05-20 19:59:47.296
15.0, 22392.223464515624, 0.0, 0.0, 0.0, 0.0, 0.0, 0.0, 0.0, 0.024, -0.042, 1.022, 192.0, 0.0, 0.0, 0.0, 0.0, 0.0, 0.0, 0.0, 0.0, 0.0, 1.621555187304949E9, 0.0, 2021-05-20 19:59:47.304
16.0, 22340.680341801686, 0.0, 0.0, 0.0, 0.0, 0.0, 0.0, 0.0, 0.024, -0.042, 1.022, 192.0, 0.0, 0.0, 0.0, 0.0, 0.0, 0.0, 0.0, 0.0, 0.0, 1.621555187304957E9, 0.0, 2021-05-20 19:59:47.304
17.0, 22362.428589156698, 0.0, 0.0, 0.0, 0.0, 0.0, 0.0, 0.0, 0.024, -0.042, 1.022, 192.0, 0.0, 0.0, 0.0, 0.0, 0.0, 0.0, 0.0, 0.0, 0.0, 1.621555187312905E9, 0.0, 2021-05-20 19:59:47.312
18.0, 22376.800760841463, 0.0, 0.0, 0.0, 0.0, 0.0, 0.0, 0.0, 0.024, -0.042, 1.022, 192.0, 0.0, 0.0, 0.0, 0.0, 0.0, 0.0, 0.0, 0.0, 0.0, 1.621555187312925E9, 0.0, 2021-05-20 19:59:47.312
19.0, 22353.398484396756, 0.0, 0.0, 0.0, 0.0, 0.0, 0.0, 0.0, 0.024, -0.042, 1.022, 192.0, 0.0, 0.0, 0.0, 0.0, 0.0, 0.0, 0.0, 0.0, 0.0, 1.621555187319527E9, 0.0, 2021-05-20 19:59:47.319
20.0, 22300.536608759954, 0.0, 0.0, 0.0, 0.0, 0.0, 0.0, 0.0, 0.024, -0.042, 1.022, 192.0, 0.0, 0.0, 0.0, 0.0, 0.0, 0.0, 0.0, 0.0, 0.0, 1.621555187319534E9, 0.0, 2021-05-20 19:59:47.319
21.0, 22326.688149772664, 0.0, 0.0, 0.0, 0.0, 0.0, 0.0, 0.0, 0.026000000000000002, -0.042, 1.022, 192.0, 0.0, 208.0, 254.0, 176.0, 31.0, 240.0, 0.0, 0.0, 0.0, 1.621555187327528E9, 0.0, 2021-05-20 19:59:47.327
22.0, 22337.349931877845, 0.0, 0.0, 0.0, 0.0, 0.0, 0.0, 0.0, 0.026000000000000002, -0.042, 1.022, 192.0, 0.0, 0.0, 0.0, 0.0, 0.0, 0.0, 0.0, 0.0, 0.0, 1.621555187327535E9, 0.0, 2021-05-20 19:59:47.327
23.0, 22311.75718447652, 0.0, 0.0, 0.0, 0.0, 0.0, 0.0, 0.0, 0.026000000000000002, -0.042, 1.022, 192.0, 0.0, 0.0, 0.0, 0.0, 0.0, 0.0, 0.0, 0.0, 0.0, 1.621555187334555E9, 0.0, 2021-05-20 19:59:47.334
24.0, 22303.688204728154, 0.0, 0.0, 0.0, 0.0, 0.0, 0.0, 0.0, 0.026000000000000002, -0.042, 1.022, 192.0, 0.0, 0.0, 0.0, 0.0, 0.0, 0.0, 0.0, 0.0, 0.0, 1.621555187342653E9, 0.0, 2021-05-20 19:59:47.342
25.0, 22285.40447776371, 0.0, 0.0, 0.0, 0.0, 0.0, 0.0, 0.0, 0.026000000000000002, -0.042, 1.022, 192.0, 0.0, 0.0, 0.0, 0.0, 0.0, 0.0, 0.0, 0.0, 0.0, 1.621555187342661E9, 0.0, 2021-05-20 19:59:47.342
26.0, 22327.783385250972, 0.0, 0.0, 0.0, 0.0, 0.0, 0.0, 0.0, 0.026000000000000002, -0.042, 1.022, 192.0, 0.0, 0.0, 0.0, 0.0, 0.0, 0.0, 0.0, 0.0, 0.0, 1.621555187349136E9, 0.0, 2021-05-20 19:59:47.349
27.0, 22357.153577465248, 0.0, 0.0, 0.0, 0.0, 0.0, 0.0, 0.0, 0.026000000000000002, -0.042, 1.022, 192.0, 0.0, 0.0, 0.0, 0.0, 0.0, 0.0, 0.0, 0.0, 0.0, 1.621555187349142E9, 0.0, 2021-05-20 19:59:47.349
28.0, 22348.928135505696, 0.0, 0.0, 0.0, 0.0, 0.0, 0.0, 0.0, 0.026000000000000002, -0.042, 1.022, 192.0, 0.0, 0.0, 0.0, 0.0, 0.0, 0.0, 0.0, 0.0, 0.0, 1.621555187357152E9, 0.0, 2021-05-20 19:59:47.357
29.0, 22316.182829878668, 0.0, 0.0, 0.0, 0.0, 0.0, 0.0, 0.0, 0.026000000000000002, -0.042, 1.022, 192.0, 0.0, 0.0, 0.0, 0.0, 0.0, 0.0, 0.0, 0.0, 0.0, 1.62155518735716E9, 0.0, 2021-05-20 19:59:47.357
30.0, 22379.639432387285, 0.0, 0.0, 0.0, 0.0, 0.0, 0.0, 0.0, 0.026000000000000002, -0.042, 1.022, 192.0, 0.0, 0.0, 0.0, 0.0, 0.0, 0.0, 0.0, 0.0, 0.0, 1.621555187365167E9, 0.0, 2021-05-20 19:59:47.365
31.0, 22371.14576949427, 0.0, 0.0, 0.0, 0.0, 0.0, 0.0, 0.0, 0.022, -0.04, 1.022, 192.0, 0.0, 176.0, 254.0, 192.0, 31.0, 240.0, 0.0, 0.0, 0.0, 1.621555187365174E9, 0.0, 2021-05-20 19:59:47.365
32.0, 22322.08369041487, 0.0, 0.0, 0.0, 0.0, 0.0, 0.0, 0.0, 0.022, -0.04, 1.022, 192.0, 0.0, 0.0, 0.0, 0.0, 0.0, 0.0, 0.0, 0.0, 0.0, 1.62155518737239E9, 0.0, 2021-05-20 19:59:47.372
33.0, 22262.27042225247, 0.0, 0.0, 0.0, 0.0, 0.0, 0.0, 0.0, 0.022, -0.04, 1.022, 192.0, 0.0, 0.0, 0.0, 0.0, 0.0, 0.0, 0.0, 0.0, 0.0, 1.621555187372403E9, 0.0, 2021-05-20 19:59:47.372
34.0, 22286.142085330735, 0.0, 0.0, 0.0, 0.0, 0.0, 0.0, 0.0, 0.022, -0.04, 1.022, 192.0, 0.0, 0.0, 0.0, 0.0, 0.0, 0.0, 0.0, 0.0, 0.0, 1.621555187379821E9, 0.0, 2021-05-20 19:59:47.379
35.0, 22353.622001841308, 0.0, 0.0, 0.0, 0.0, 0.0, 0.0, 0.0, 0.022, -0.04, 1.022, 192.0, 0.0, 0.0, 0.0, 0.0, 0.0, 0.0, 0.0, 0.0, 0.0, 1.621555187379828E9, 0.0, 2021-05-20 19:59:47.379
36.0, 22361.601574611854, 0.0, 0.0, 0.0, 0.0, 0.0, 0.0, 0.0, 0.022, -0.04, 1.022, 192.0, 0.0, 0.0, 0.0, 0.0, 0.0, 0.0, 0.0, 0.0, 0.0, 1.621555187387765E9, 0.0, 2021-05-20 19:59:47.387
37.0, 22311.80188796543, 0.0, 0.0, 0.0, 0.0, 0.0, 0.0, 0.0, 0.022, -0.04, 1.022, 192.0, 0.0, 0.0, 0.0, 0.0, 0.0, 0.0, 0.0, 0.0, 0.0, 1.621555187387777E9, 0.0, 2021-05-20 19:59:47.387
38.0, 22348.011713983025, 0.0, 0.0, 0.0, 0.0, 0.0, 0.0, 0.0, 0.022, -0.04, 1.022, 192.0, 0.0, 0.0, 0.0, 0.0, 0.0, 0.0, 0.0, 0.0, 0.0, 1.621555187394766E9, 0.0, 2021-05-20 19:59:47.394
39.0, 22426.466337021153, 0.0, 0.0, 0.0, 0.0, 0.0, 0.0, 0.0, 0.022, -0.04, 1.022, 192.0, 0.0, 0.0, 0.0, 0.0, 0.0, 0.0, 0.0, 0.0, 0.0, 1.621555187394772E9, 0.0, 2021-05-20 19:59:47.394
40.0, 22375.012621285037, 0.0, 0.0, 0.0, 0.0, 0.0, 0.0, 0.0, 0.022, -0.04, 1.022, 192.0, 0.0, 0.0, 0.0, 0.0, 0.0, 0.0, 0.0, 0.0, 0.0, 1.621555187402015E9, 0.0, 2021-05-20 19:59:47.402
41.0, 22355.38778965328, 0.0, 0.0, 0.0, 0.0, 0.0, 0.0, 0.0, 0.024, -0.038, 1.022, 192.0, 0.0, 192.0, 254.0, 208.0, 31.0, 240.0, 0.0, 0.0, 0.0, 1.621555187411429E9, 0.0, 2021-05-20 19:59:47.411
42.0, 22332.834879497874, 0.0, 0.0, 0.0, 0.0, 0.0, 0.0, 0.0, 0.024, -0.038, 1.022, 192.0, 0.0, 0.0, 0.0, 0.0, 0.0, 0.0, 0.0, 0.0, 0.0, 1.621555187411437E9, 0.0, 2021-05-20 19:59:47.411
43.0, 22385.674403390218, 0.0, 0.0, 0.0, 0.0, 0.0, 0.0, 0.0, 0.024, -0.038, 1.022, 192.0, 0.0, 0.0, 0.0, 0.0, 0.0, 0.0, 0.0, 0.0, 0.0, 1.621555187417538E9, 0.0, 2021-05-20 19:59:47.417
44.0, 22433.3953778023, 0.0, 0.0, 0.0, 0.0, 0.0, 0.0, 0.0, 0.024, -0.038, 1.022, 192.0, 0.0, 0.0, 0.0, 0.0, 0.0, 0.0, 0.0, 0.0, 0.0, 1.621555187417544E9, 0.0, 2021-05-20 19:59:47.417
45.0, 22398.549008196474, 0.0, 0.0, 0.0, 0.0, 0.0, 0.0, 0.0, 0.024, -0.038, 1.022, 192.0, 0.0, 0.0, 0.0, 0.0, 0.0, 0.0, 0.0, 0.0, 0.0, 1.621555187425399E9, 0.0, 2021-05-20 19:59:47.425
46.0, 22340.434472612676, 0.0, 0.0, 0.0, 0.0, 0.0, 0.0, 0.0, 0.024, -0.038, 1.022, 192.0, 0.0, 0.0, 0.0, 0.0, 0.0, 0.0, 0.0, 0.0, 0.0, 1.621555187425406E9, 0.0, 2021-05-20 19:59:47.425
47.0, 22381.76284811054, 0.0, 0.0, 0.0, 0.0, 0.0, 0.0, 0.0, 0.024, -0.038, 1.022, 192.0, 0.0, 0.0, 0.0, 0.0, 0.0, 0.0, 0.0, 0.0, 0.0, 1.621555187432085E9, 0.0, 2021-05-20 19:59:47.432
48.0, 22410.417784502242, 0.0, 0.0, 0.0, 0.0, 0.0, 0.0, 0.0, 0.024, -0.038, 1.022, 192.0, 0.0, 0.0, 0.0, 0.0, 0.0, 0.0, 0.0, 0.0, 0.0, 1.621555187432095E9, 0.0, 2021-05-20 19:59:47.432
49.0, 22387.283728991002, 0.0, 0.0, 0.0, 0.0, 0.0, 0.0, 0.0, 0.024, -0.038, 1.022, 192.0, 0.0, 0.0, 0.0, 0.0, 0.0, 0.0, 0.0, 0.0, 0.0, 1.62155518744002E9, 0.0, 2021-05-20 19:59:47.440
50.0, 22360.886318789282, 0.0, 0.0, 0.0, 0.0, 0.0, 0.0, 0.0, 0.028, -0.036000000000000004, 1.02, 192.0, 0.0, 224.0, 254.0, 224.0, 31.0, 224.0, 0.0, 0.0, 0.0, 1.621555187440042E9, 0.0, 2021-05-20 19:59:47.440
51.0, 22425.885191665315, 0.0, 0.0, 0.0, 0.0, 0.0, 0.0, 0.0, 0.028, -0.036000000000000004, 1.02, 192.0, 0.0, 0.0, 0.0, 0.0, 0.0, 0.0, 0.0, 0.0, 0.0, 1.621555187448115E9, 0.0, 2021-05-20 19:59:47.448
52.0, 22484.3573551604, 0.0, 0.0, 0.0, 0.0, 0.0, 0.0, 0.0, 0.028, -0.036000000000000004, 1.02, 192.0, 0.0, 0.0, 0.0, 0.0, 0.0, 0.0, 0.0, 0.0, 0.0, 1.621555187448124E9, 0.0, 2021-05-20 19:59:47.448
53.0, 22464.710171784183, 0.0, 0.0, 0.0, 0.0, 0.0, 0.0, 0.0, 0.028, -0.036000000000000004, 1.02, 192.0, 0.0, 0.0, 0.0, 0.0, 0.0, 0.0, 0.0, 0.0, 0.0, 1.621555187455229E9, 0.0, 2021-05-20 19:59:47.455
54.0, 22436.97165691515, 0.0, 0.0, 0.0, 0.0, 0.0, 0.0, 0.0, 0.028, -0.036000000000000004, 1.02, 192.0, 0.0, 0.0, 0.0, 0.0, 0.0, 0.0, 0.0, 0.0, 0.0, 1.621555187455241E9, 0.0, 2021-05-20 19:59:47.455
55.0, 22441.73257848413, 0.0, 0.0, 0.0, 0.0, 0.0, 0.0, 0.0, 0.028, -0.036000000000000004, 1.02, 192.0, 0.0, 0.0, 0.0, 0.0, 0.0, 0.0, 0.0, 0.0, 0.0, 1.621555187461685E9, 0.0, 2021-05-20 19:59:47.461
56.0, 22424.074700364436, 0.0, 0.0, 0.0, 0.0, 0.0, 0.0, 0.0, 0.028, -0.036000000000000004, 1.02, 192.0, 0.0, 0.0, 0.0, 0.0, 0.0, 0.0, 0.0, 0.0, 0.0, 1.621555187470187E9, 0.0, 2021-05-20 19:59:47.470
57.0, 22383.90861557825, 0.0, 0.0, 0.0, 0.0, 0.0, 0.0, 0.0, 0.028, -0.036000000000000004, 1.02, 192.0, 0.0, 0.0, 0.0, 0.0, 0.0, 0.0, 0.0, 0.0, 0.0, 1.621555187470196E9, 0.0, 2021-05-20 19:59:47.470
58.0, 22374.163254995736, 0.0, 0.0, 0.0, 0.0, 0.0, 0.0, 0.0, 0.028, -0.036000000000000004, 1.02, 192.0, 0.0, 0.0, 0.0, 0.0, 0.0, 0.0, 0.0, 0.0, 0.0, 1.621555187479233E9, 0.0, 2021-05-20 19:59:47.479
59.0, 22420.67723520723, 0.0, 0.0, 0.0, 0.0, 0.0, 0.0, 0.0, 0.028, -0.036000000000000004, 1.02, 192.0, 0.0, 0.0, 0.0, 0.0, 0.0, 0.0, 0.0, 0.0, 0.0, 1.621555187479254E9, 0.0, 2021-05-20 19:59:47.479
60.0, 22479.05999172449, 0.0, 0.0, 0.0, 0.0, 0.0, 0.0, 0.0, 0.018000000000000002, -0.038, 1.022, 192.0, 0.0, 144.0, 254.0, 208.0, 31.0, 240.0, 0.0, 0.0, 0.0, 1.621555187485398E9, 0.0, 2021-05-20 19:59:47.485
61.0, 22461.893851982815, 0.0, 0.0, 0.0, 0.0, 0.0, 0.0, 0.0, 0.018000000000000002, -0.038, 1.022, 192.0, 0.0, 0.0, 0.0, 0.0, 0.0, 0.0, 0.0, 0.0, 0.0, 1.621555187485405E9, 0.0, 2021-05-20 19:59:47.485
62.0, 22419.157316584267, 0.0, 0.0, 0.0, 0.0, 0.0, 0.0, 0.0, 0.018000000000000002, -0.038, 1.022, 192.0, 0.0, 0.0, 0.0, 0.0, 0.0, 0.0, 0.0, 0.0, 0.0, 1.621555187492312E9, 0.0, 2021-05-20 19:59:47.492
63.0, 22398.86193261885, 0.0, 0.0, 0.0, 0.0, 0.0, 0.0, 0.0, 0.018000000000000002, -0.038, 1.022, 192.0, 0.0, 0.0, 0.0, 0.0, 0.0, 0.0, 0.0, 0.0, 0.0, 1.621555187492321E9, 0.0, 2021-05-20 19:59:47.492
64.0, 22407.66851993424, 0.0, 0.0, 0.0, 0.0, 0.0, 0.0, 0.0, 0.018000000000000002, -0.038, 1.022, 192.0, 0.0, 0.0, 0.0, 0.0, 0.0, 0.0, 0.0, 0.0, 0.0, 1.621555187500294E9, 0.0, 2021-05-20 19:59:47.500
65.0, 22361.28865018948, 0.0, 0.0, 0.0, 0.0, 0.0, 0.0, 0.0, 0.018000000000000002, -0.038, 1.022, 192.0, 0.0, 0.0, 0.0, 0.0, 0.0, 0.0, 0.0, 0.0, 0.0, 1.621555187500302E9, 0.0, 2021-05-20 19:59:47.500
66.0, 22348.74932155005, 0.0, 0.0, 0.0, 0.0, 0.0, 0.0, 0.0, 0.018000000000000002, -0.038, 1.022, 192.0, 0.0, 0.0, 0.0, 0.0, 0.0, 0.0, 0.0, 0.0, 0.0, 1.621555187507394E9, 0.0, 2021-05-20 19:59:47.507
67.0, 22337.059359199928, 0.0, 0.0, 0.0, 0.0, 0.0, 0.0, 0.0, 0.018000000000000002, -0.038, 1.022, 192.0, 0.0, 0.0, 0.0, 0.0, 0.0, 0.0, 0.0, 0.0, 0.0, 1.6215551875074E9, 0.0, 2021-05-20 19:59:47.507
68.0, 22382.791028355485, 0.0, 0.0, 0.0, 0.0, 0.0, 0.0, 0.0, 0.018000000000000002, -0.038, 1.022, 192.0, 0.0, 0.0, 0.0, 0.0, 0.0, 0.0, 0.0, 0.0, 0.0, 1.6215551875149E9, 0.0, 2021-05-20 19:59:47.514
69.0, 22394.346880238878, 0.0, 0.0, 0.0, 0.0, 0.0, 0.0, 0.0, 0.018000000000000002, -0.038, 1.022, 192.0, 0.0, 0.0, 0.0, 0.0, 0.0, 0.0, 0.0, 0.0, 0.0, 1.621555187514908E9, 0.0, 2021-05-20 19:59:47.514
70.0, 22360.66280134473, 0.0, 0.0, 0.0, 0.0, 0.0, 0.0, 0.0, 0.022, -0.04, 1.026, 192.0, 0.0, 176.0, 254.0, 192.0, 32.0, 16.0, 0.0, 0.0, 0.0, 1.621555187522139E9, 0.0, 2021-05-20 19:59:47.522
71.0, 22385.316775478936, 0.0, 0.0, 0.0, 0.0, 0.0, 0.0, 0.0, 0.022, -0.04, 1.026, 192.0, 0.0, 0.0, 0.0, 0.0, 0.0, 0.0, 0.0, 0.0, 0.0, 1.621555187529937E9, 0.0, 2021-05-20 19:59:47.529
72.0, 22385.249720245567, 0.0, 0.0, 0.0, 0.0, 0.0, 0.0, 0.0, 0.022, -0.04, 1.026, 192.0, 0.0, 0.0, 0.0, 0.0, 0.0, 0.0, 0.0, 0.0, 0.0, 1.621555187529944E9, 0.0, 2021-05-20 19:59:47.529
73.0, 22416.542162482998, 0.0, 0.0, 0.0, 0.0, 0.0, 0.0, 0.0, 0.022, -0.04, 1.026, 192.0, 0.0, 0.0, 0.0, 0.0, 0.0, 0.0, 0.0, 0.0, 0.0, 1.621555187537943E9, 0.0, 2021-05-20 19:59:47.537
74.0, 22403.555798954465, 0.0, 0.0, 0.0, 0.0, 0.0, 0.0, 0.0, 0.022, -0.04, 1.026, 192.0, 0.0, 0.0, 0.0, 0.0, 0.0, 0.0, 0.0, 0.0, 0.0, 1.62155518753795E9, 0.0, 2021-05-20 19:59:47.537
75.0, 22384.422705700723, 0.0, 0.0, 0.0, 0.0, 0.0, 0.0, 0.0, 0.022, -0.04, 1.026, 192.0, 0.0, 0.0, 0.0, 0.0, 0.0, 0.0, 0.0, 0.0, 0.0, 1.621555187544598E9, 0.0, 2021-05-20 19:59:47.544
76.0, 22402.2370460316, 0.0, 0.0, 0.0, 0.0, 0.0, 0.0, 0.0, 0.022, -0.04, 1.026, 192.0, 0.0, 0.0, 0.0, 0.0, 0.0, 0.0, 0.0, 0.0, 0.0, 1.621555187544607E9, 0.0, 2021-05-20 19:59:47.544
77.0, 22413.502325237077, 0.0, 0.0, 0.0, 0.0, 0.0, 0.0, 0.0, 0.022, -0.04, 1.026, 192.0, 0.0, 0.0, 0.0, 0.0, 0.0, 0.0, 0.0, 0.0, 0.0, 1.621555187552589E9, 0.0, 2021-05-20 19:59:47.552
78.0, 22427.71803471065, 0.0, 0.0, 0.0, 0.0, 0.0, 0.0, 0.0, 0.022, -0.04, 1.026, 192.0, 0.0, 0.0, 0.0, 0.0, 0.0, 0.0, 0.0, 0.0, 0.0, 1.621555187552595E9, 0.0, 2021-05-20 19:59:47.552
79.0, 22433.574191757943, 0.0, 0.0, 0.0, 0.0, 0.0, 0.0, 0.0, 0.022, -0.04, 1.026, 192.0, 0.0, 0.0, 0.0, 0.0, 0.0, 0.0, 0.0, 0.0, 0.0, 1.621555187560633E9, 0.0, 2021-05-20 19:59:47.560
80.0, 22441.576116272943, 0.0, 0.0, 0.0, 0.0, 0.0, 0.0, 0.0, 0.02, -0.044, 1.022, 192.0, 0.0, 160.0, 254.0, 160.0, 31.0, 240.0, 0.0, 0.0, 0.0, 1.621555187560676E9, 0.0, 2021-05-20 19:59:47.560
81.0, 22452.506119311587, 0.0, 0.0, 0.0, 0.0, 0.0, 0.0, 0.0, 0.02, -0.044, 1.022, 192.0, 0.0, 0.0, 0.0, 0.0, 0.0, 0.0, 0.0, 0.0, 0.0, 1.621555187567273E9, 0.0, 2021-05-20 19:59:47.567
82.0, 22526.244524269645, 0.0, 0.0, 0.0, 0.0, 0.0, 0.0, 0.0, 0.02, -0.044, 1.022, 192.0, 0.0, 0.0, 0.0, 0.0, 0.0, 0.0, 0.0, 0.0, 0.0, 1.621555187567281E9, 0.0, 2021-05-20 19:59:47.567
83.0, 22556.262917073123, 0.0, 0.0, 0.0, 0.0, 0.0, 0.0, 0.0, 0.02, -0.044, 1.022, 192.0, 0.0, 0.0, 0.0, 0.0, 0.0, 0.0, 0.0, 0.0, 0.0, 1.621555187575172E9, 0.0, 2021-05-20 19:59:47.575
84.0, 22609.14714445438, 0.0, 0.0, 0.0, 0.0, 0.0, 0.0, 0.0, 0.02, -0.044, 1.022, 192.0, 0.0, 0.0, 0.0, 0.0, 0.0, 0.0, 0.0, 0.0, 0.0, 1.62155518757518E9, 0.0, 2021-05-20 19:59:47.575
85.0, 22782.931957594392, 0.0, 0.0, 0.0, 0.0, 0.0, 0.0, 0.0, 0.02, -0.044, 1.022, 192.0, 0.0, 0.0, 0.0, 0.0, 0.0, 0.0, 0.0, 0.0, 0.0, 1.621555187582262E9, 0.0, 2021-05-20 19:59:47.582
86.0, 22813.33033005361, 0.0, 0.0, 0.0, 0.0, 0.0, 0.0, 0.0, 0.02, -0.044, 1.022, 192.0, 0.0, 0.0, 0.0, 0.0, 0.0, 0.0, 0.0, 0.0, 0.0, 1.621555187590442E9, 0.0, 2021-05-20 19:59:47.590
87.0, 22708.2100758803, 0.0, 0.0, 0.0, 0.0, 0.0, 0.0, 0.0, 0.02, -0.044, 1.022, 192.0, 0.0, 0.0, 0.0, 0.0, 0.0, 0.0, 0.0, 0.0, 0.0, 1.621555187590451E9, 0.0, 2021-05-20 19:59:47.590
88.0, 22672.223767307256, 0.0, 0.0, 0.0, 0.0, 0.0, 0.0, 0.0, 0.02, -0.044, 1.022, 192.0, 0.0, 0.0, 0.0, 0.0, 0.0, 0.0, 0.0, 0.0, 0.0, 1.621555187596829E9, 0.0, 2021-05-20 19:59:47.596
89.0, 22620.367720170943, 0.0, 0.0, 0.0, 0.0, 0.0, 0.0, 0.0, 0.02, -0.044, 1.022, 192.0, 0.0, 0.0, 0.0, 0.0, 0.0, 0.0, 0.0, 0.0, 0.0, 1.621555187596837E9, 0.0, 2021-05-20 19:59:47.596
90.0, 22526.55744869202, 0.0, 0.0, 0.0, 0.0, 0.0, 0.0, 0.0, 0.02, -0.04, 1.026, 192.0, 0.0, 160.0, 254.0, 192.0, 32.0, 16.0, 0.0, 0.0, 0.0, 1.621555187604886E9, 0.0, 2021-05-20 19:59:47.604
91.0, 22389.00481331406, 0.0, 0.0, 0.0, 0.0, 0.0, 0.0, 0.0, 0.02, -0.04, 1.026, 192.0, 0.0, 0.0, 0.0, 0.0, 0.0, 0.0, 0.0, 0.0, 0.0, 1.621555187604893E9, 0.0, 2021-05-20 19:59:47.604
92.0, 22308.69499548614, 0.0, 0.0, 0.0, 0.0, 0.0, 0.0, 0.0, 0.02, -0.04, 1.026, 192.0, 0.0, 0.0, 0.0, 0.0, 0.0, 0.0, 0.0, 0.0, 0.0, 1.621555187613414E9, 0.0, 2021-05-20 19:59:47.613
93.0, 22369.245871215568, 0.0, 0.0, 0.0, 0.0, 0.0, 0.0, 0.0, 0.02, -0.04, 1.026, 192.0, 0.0, 0.0, 0.0, 0.0, 0.0, 0.0, 0.0, 0.0, 0.0, 1.621555187613422E9, 0.0, 2021-05-20 19:59:47.613
94.0, 22405.209828044157, 0.0, 0.0, 0.0, 0.0, 0.0, 0.0, 0.0, 0.02, -0.04, 1.026, 192.0, 0.0, 0.0, 0.0, 0.0, 0.0, 0.0, 0.0, 0.0, 0.0, 1.621555187621446E9, 0.0, 2021-05-20 19:59:47.621
95.0, 22401.477086720122, 0.0, 0.0, 0.0, 0.0, 0.0, 0.0, 0.0, 0.02, -0.04, 1.026, 192.0, 0.0, 0.0, 0.0, 0.0, 0.0, 0.0, 0.0, 0.0, 0.0, 1.621555187621453E9, 0.0, 2021-05-20 19:59:47.621
96.0, 22371.726914850107, 0.0, 0.0, 0.0, 0.0, 0.0, 0.0, 0.0, 0.02, -0.04, 1.026, 192.0, 0.0, 0.0, 0.0, 0.0, 0.0, 0.0, 0.0, 0.0, 0.0, 1.621555187628027E9, 0.0, 2021-05-20 19:59:47.628
97.0, 22426.935723654715, 0.0, 0.0, 0.0, 0.0, 0.0, 0.0, 0.0, 0.02, -0.04, 1.026, 192.0, 0.0, 0.0, 0.0, 0.0, 0.0, 0.0, 0.0, 0.0, 0.0, 1.621555187628037E9, 0.0, 2021-05-20 19:59:47.628
98.0, 22446.15822388628, 0.0, 0.0, 0.0, 0.0, 0.0, 0.0, 0.0, 0.02, -0.04, 1.026, 192.0, 0.0, 0.0, 0.0, 0.0, 0.0, 0.0, 0.0, 0.0, 0.0, 1.621555187636026E9, 0.0, 2021-05-20 19:59:47.636
99.0, 22411.44596474719, 0.0, 0.0, 0.0, 0.0, 0.0, 0.0, 0.0, 0.02, -0.04, 1.026, 192.0, 0.0, 0.0, 0.0, 0.0, 0.0, 0.0, 0.0, 0.0, 0.0, 1.621555187636033E9, 0.0, 2021-05-20 19:59:47.636
100.0, 22363.345010679368, 0.0, 0.0, 0.0, 0.0, 0.0, 0.0, 0.0, 0.022, -0.042, 1.024, 192.0, 0.0, 176.0, 254.0, 176.0, 32.0, 0.0, 0.0, 0.0, 0.0, 1.621555187642494E9, 0.0, 2021-05-20 19:59:47.642
101.0, 22413.569380470442, 0.0, 0.0, 0.0, 0.0, 0.0, 0.0, 0.0, 0.022, -0.042, 1.024, 192.0, 0.0, 0.0, 0.0, 0.0, 0.0, 0.0, 0.0, 0.0, 0.0, 1.621555187642501E9, 0.0, 2021-05-20 19:59:47.642
102.0, 22506.865561826893, 0.0, 0.0, 0.0, 0.0, 0.0, 0.0, 0.0, 0.022, -0.042, 1.024, 192.0, 0.0, 0.0, 0.0, 0.0, 0.0, 0.0, 0.0, 0.0, 0.0, 1.62155518764917E9, 0.0, 2021-05-20 19:59:47.649
103.0, 22486.145494716824, 0.0, 0.0, 0.0, 0.0, 0.0, 0.0, 0.0, 0.022, -0.042, 1.024, 192.0, 0.0, 0.0, 0.0, 0.0, 0.0, 0.0, 0.0, 0.0, 0.0, 1.62155518765714E9, 0.0, 2021-05-20 19:59:47.657
104.0, 22475.997802734113, 0.0, 0.0, 0.0, 0.0, 0.0, 0.0, 0.0, 0.022, -0.042, 1.024, 192.0, 0.0, 0.0, 0.0, 0.0, 0.0, 0.0, 0.0, 0.0, 0.0, 1.621555187657148E9, 0.0, 2021-05-20 19:59:47.657
105.0, 22422.91240965276, 0.0, 0.0, 0.0, 0.0, 0.0, 0.0, 0.0, 0.022, -0.042, 1.024, 192.0, 0.0, 0.0, 0.0, 0.0, 0.0, 0.0, 0.0, 0.0, 0.0, 1.621555187665141E9, 0.0, 2021-05-20 19:59:47.665
106.0, 22458.67520078125, 0.0, 0.0, 0.0, 0.0, 0.0, 0.0, 0.0, 0.022, -0.042, 1.024, 192.0, 0.0, 0.0, 0.0, 0.0, 0.0, 0.0, 0.0, 0.0, 0.0, 1.621555187665148E9, 0.0, 2021-05-20 19:59:47.665
107.0, 22465.850110751406, 0.0, 0.0, 0.0, 0.0, 0.0, 0.0, 0.0, 0.022, -0.042, 1.024, 192.0, 0.0, 0.0, 0.0, 0.0, 0.0, 0.0, 0.0, 0.0, 0.0, 1.621555187672214E9, 0.0, 2021-05-20 19:59:47.672
108.0, 22453.690761767717, 0.0, 0.0, 0.0, 0.0, 0.0, 0.0, 0.0, 0.022, -0.042, 1.024, 192.0, 0.0, 0.0, 0.0, 0.0, 0.0, 0.0, 0.0, 0.0, 0.0, 1.621555187672221E9, 0.0, 2021-05-20 19:59:47.672
109.0, 22501.791715835538, 0.0, 0.0, 0.0, 0.0, 0.0, 0.0, 0.0, 0.022, -0.042, 1.024, 192.0, 0.0, 0.0, 0.0, 0.0, 0.0, 0.0, 0.0, 0.0, 0.0, 1.621555187679759E9, 0.0, 2021-05-20 19:59:47.679
110.0, 22552.686637960272, 0.0, 0.0, 0.0, 0.0, 0.0, 0.0, 0.0, 0.024, -0.038, 1.022, 192.0, 0.0, 192.0, 254.0, 208.0, 31.0, 240.0, 0.0, 0.0, 0.0, 1.621555187679777E9, 0.0, 2021-05-20 19:59:47.679
111.0, 22503.06576526949, 0.0, 0.0, 0.0, 0.0, 0.0, 0.0, 0.0, 0.024, -0.038, 1.022, 192.0, 0.0, 0.0, 0.0, 0.0, 0.0, 0.0, 0.0, 0.0, 0.0, 1.621555187689191E9, 0.0, 2021-05-20 19:59:47.689
112.0, 22392.737554638097, 0.0, 0.0, 0.0, 0.0, 0.0, 0.0, 0.0, 0.024, -0.038, 1.022, 192.0, 0.0, 0.0, 0.0, 0.0, 0.0, 0.0, 0.0, 0.0, 0.0, 1.621555187689199E9, 0.0, 2021-05-20 19:59:47.689
113.0, 22421.90658115227, 0.0, 0.0, 0.0, 0.0, 0.0, 0.0, 0.0, 0.024, -0.038, 1.022, 192.0, 0.0, 0.0, 0.0, 0.0, 0.0, 0.0, 0.0, 0.0, 0.0, 1.621555187695828E9, 0.0, 2021-05-20 19:59:47.695
114.0, 22491.35345117491, 0.0, 0.0, 0.0, 0.0, 0.0, 0.0, 0.0, 0.024, -0.038, 1.022, 192.0, 0.0, 0.0, 0.0, 0.0, 0.0, 0.0, 0.0, 0.0, 0.0, 1.621555187695835E9, 0.0, 2021-05-20 19:59:47.695
115.0, 22507.938445560747, 0.0, 0.0, 0.0, 0.0, 0.0, 0.0, 0.0, 0.024, -0.038, 1.022, 192.0, 0.0, 0.0, 0.0, 0.0, 0.0, 0.0, 0.0, 0.0, 0.0, 1.621555187702888E9, 0.0, 2021-05-20 19:59:47.702
116.0, 22462.92203222776, 0.0, 0.0, 0.0, 0.0, 0.0, 0.0, 0.0, 0.024, -0.038, 1.022, 192.0, 0.0, 0.0, 0.0, 0.0, 0.0, 0.0, 0.0, 0.0, 0.0, 1.621555187702897E9, 0.0, 2021-05-20 19:59:47.702
117.0, 22436.92695342624, 0.0, 0.0, 0.0, 0.0, 0.0, 0.0, 0.0, 0.024, -0.038, 1.022, 192.0, 0.0, 0.0, 0.0, 0.0, 0.0, 0.0, 0.0, 0.0, 0.0, 1.621555187709415E9, 0.0, 2021-05-20 19:59:47.709
118.0, 22488.961814518192, 0.0, 0.0, 0.0, 0.0, 0.0, 0.0, 0.0, 0.024, -0.038, 1.022, 192.0, 0.0, 0.0, 0.0, 0.0, 0.0, 0.0, 0.0, 0.0, 0.0, 1.621555187717355E9, 0.0, 2021-05-20 19:59:47.717
119.0, 22531.608942938918, 0.0, 0.0, 0.0, 0.0, 0.0, 0.0, 0.0, 0.018000000000000002, -0.036000000000000004, 1.028, 192.0, 0.0, 144.0, 254.0, 224.0, 32.0, 32.0, 0.0, 0.0, 0.0, 1.621555187717363E9, 0.0, 2021-05-20 19:59:47.717
120.0, 22506.2620647266, 0.0, 0.0, 0.0, 0.0, 0.0, 0.0, 0.0, 0.018000000000000002, -0.036000000000000004, 1.028, 192.0, 0.0, 0.0, 0.0, 0.0, 0.0, 0.0, 0.0, 0.0, 0.0, 1.621555187725437E9, 0.0, 2021-05-20 19:59:47.725
121.0, 22472.756799788094, 0.0, 0.0, 0.0, 0.0, 0.0, 0.0, 0.0, 0.018000000000000002, -0.036000000000000004, 1.028, 192.0, 0.0, 0.0, 0.0, 0.0, 0.0, 0.0, 0.0, 0.0, 0.0, 1.621555187725446E9, 0.0, 2021-05-20 19:59:47.725
122.0, 22503.244579225135, 0.0, 0.0, 0.0, 0.0, 0.0, 0.0, 0.0, 0.018000000000000002, -0.036000000000000004, 1.028, 192.0, 0.0, 0.0, 0.0, 0.0, 0.0, 0.0, 0.0, 0.0, 0.0, 1.621555187732049E9, 0.0, 2021-05-20 19:59:47.732
123.0, 22563.884861932384, 0.0, 0.0, 0.0, 0.0, 0.0, 0.0, 0.0, 0.018000000000000002, -0.036000000000000004, 1.028, 192.0, 0.0, 0.0, 0.0, 0.0, 0.0, 0.0, 0.0, 0.0, 0.0, 1.621555187732056E9, 0.0, 2021-05-20 19:59:47.732
124.0, 22481.83160803695, 0.0, 0.0, 0.0, 0.0, 0.0, 0.0, 0.0, 0.018000000000000002, -0.036000000000000004, 1.028, 192.0, 0.0, 0.0, 0.0, 0.0, 0.0, 0.0, 0.0, 0.0, 0.0, 1.621555187740022E9, 0.0, 2021-05-20 19:59:47.740
125.0, 22474.947270744717, 0.0, 0.0, 0.0, 0.0, 0.0, 0.0, 0.0, 0.018000000000000002, -0.036000000000000004, 1.028, 192.0, 0.0, 0.0, 0.0, 0.0, 0.0, 0.0, 0.0, 0.0, 0.0, 1.621555187740031E9, 0.0, 2021-05-20 19:59:47.740
126.0, 22550.138539092368, 0.0, 0.0, 0.0, 0.0, 0.0, 0.0, 0.0, 0.018000000000000002, -0.036000000000000004, 1.028, 192.0, 0.0, 0.0, 0.0, 0.0, 0.0, 0.0, 0.0, 0.0, 0.0, 1.621555187747976E9, 0.0, 2021-05-20 19:59:47.747
127.0, 22557.067579873514, 0.0, 0.0, 0.0, 0.0, 0.0, 0.0, 0.0, 0.018000000000000002, -0.036000000000000004, 1.028, 192.0, 0.0, 0.0, 0.0, 0.0, 0.0, 0.0, 0.0, 0.0, 0.0, 1.621555187747984E9, 0.0, 2021-05-20 19:59:47.747
128.0, 22526.51274520311, 0.0, 0.0, 0.0, 0.0, 0.0, 0.0, 0.0, 0.018000000000000002, -0.036000000000000004, 1.028, 192.0, 0.0, 0.0, 0.0, 0.0, 0.0, 0.0, 0.0, 0.0, 0.0, 1.621555187755239E9, 0.0, 2021-05-20 19:59:47.755
129.0, 22502.015233280094, 0.0, 0.0, 0.0, 0.0, 0.0, 0.0, 0.0, 0.018000000000000002, -0.042, 1.024, 192.0, 0.0, 144.0, 254.0, 176.0, 32.0, 0.0, 0.0, 0.0, 0.0, 1.621555187755249E9, 0.0, 2021-05-20 19:59:47.755
130.0, 22529.03849232656, 0.0, 0.0, 0.0, 0.0, 0.0, 0.0, 0.0, 0.018000000000000002, -0.042, 1.024, 192.0, 0.0, 0.0, 0.0, 0.0, 0.0, 0.0, 0.0, 0.0, 0.0, 1.621555187762663E9, 0.0, 2021-05-20 19:59:47.762
131.0, 22591.198693656766, 0.0, 0.0, 0.0, 0.0, 0.0, 0.0, 0.0, 0.018000000000000002, -0.042, 1.024, 192.0, 0.0, 0.0, 0.0, 0.0, 0.0, 0.0, 0.0, 0.0, 0.0, 1.621555187762671E9, 0.0, 2021-05-20 19:59:47.762
132.0, 22609.214199687744, 0.0, 0.0, 0.0, 0.0, 0.0, 0.0, 0.0, 0.018000000000000002, -0.042, 1.024, 192.0, 0.0, 0.0, 0.0, 0.0, 0.0, 0.0, 0.0, 0.0, 0.0, 1.621555187769828E9, 0.0, 2021-05-20 19:59:47.769
133.0, 22536.503974974632, 0.0, 0.0, 0.0, 0.0, 0.0, 0.0, 0.0, 0.018000000000000002, -0.042, 1.024, 192.0, 0.0, 0.0, 0.0, 0.0, 0.0, 0.0, 0.0, 0.0, 0.0, 1.621555187777747E9, 0.0, 2021-05-20 19:59:47.777
134.0, 22570.031591657593, 0.0, 0.0, 0.0, 0.0, 0.0, 0.0, 0.0, 0.018000000000000002, -0.042, 1.024, 192.0, 0.0, 0.0, 0.0, 0.0, 0.0, 0.0, 0.0, 0.0, 0.0, 1.621555187777756E9, 0.0, 2021-05-20 19:59:47.777
135.0, 22604.60974032995, 0.0, 0.0, 0.0, 0.0, 0.0, 0.0, 0.0, 0.018000000000000002, -0.042, 1.024, 192.0, 0.0, 0.0, 0.0, 0.0, 0.0, 0.0, 0.0, 0.0, 0.0, 1.621555187784806E9, 0.0, 2021-05-20 19:59:47.784
136.0, 22654.655296165383, 0.0, 0.0, 0.0, 0.0, 0.0, 0.0, 0.0, 0.018000000000000002, -0.042, 1.024, 192.0, 0.0, 0.0, 0.0, 0.0, 0.0, 0.0, 0.0, 0.0, 0.0, 1.621555187784814E9, 0.0, 2021-05-20 19:59:47.784
137.0, 22592.226873901713, 0.0, 0.0, 0.0, 0.0, 0.0, 0.0, 0.0, 0.018000000000000002, -0.042, 1.024, 192.0, 0.0, 0.0, 0.0, 0.0, 0.0, 0.0, 0.0, 0.0, 0.0, 1.62155518779241E9, 0.0, 2021-05-20 19:59:47.792
138.0, 22607.51546710914, 0.0, 0.0, 0.0, 0.0, 0.0, 0.0, 0.0, 0.018000000000000002, -0.042, 1.024, 192.0, 0.0, 0.0, 0.0, 0.0, 0.0, 0.0, 0.0, 0.0, 0.0, 1.621555187792426E9, 0.0, 2021-05-20 19:59:47.792
139.0, 22651.48134845273, 0.0, 0.0, 0.0, 0.0, 0.0, 0.0, 0.0, 0.016, -0.04, 1.028, 192.0, 0.0, 128.0, 254.0, 192.0, 32.0, 32.0, 0.0, 0.0, 0.0, 1.621555187800406E9, 0.0, 2021-05-20 19:59:47.800
140.0, 22658.812720634072, 0.0, 0.0, 0.0, 0.0, 0.0, 0.0, 0.0, 0.016, -0.04, 1.028, 192.0, 0.0, 0.0, 0.0, 0.0, 0.0, 0.0, 0.0, 0.0, 0.0, 1.621555187800414E9, 0.0, 2021-05-20 19:59:47.800
141.0, 22670.592089962018, 0.0, 0.0, 0.0, 0.0, 0.0, 0.0, 0.0, 0.016, -0.04, 1.028, 192.0, 0.0, 0.0, 0.0, 0.0, 0.0, 0.0, 0.0, 0.0, 0.0, 1.621555187807397E9, 0.0, 2021-05-20 19:59:47.807
142.0, 22628.77197608614, 0.0, 0.0, 0.0, 0.0, 0.0, 0.0, 0.0, 0.016, -0.04, 1.028, 192.0, 0.0, 0.0, 0.0, 0.0, 0.0, 0.0, 0.0, 0.0, 0.0, 1.621555187807404E9, 0.0, 2021-05-20 19:59:47.807
143.0, 22680.851540667005, 0.0, 0.0, 0.0, 0.0, 0.0, 0.0, 0.0, 0.016, -0.04, 1.028, 192.0, 0.0, 0.0, 0.0, 0.0, 0.0, 0.0, 0.0, 0.0, 0.0, 1.621555187814845E9, 0.0, 2021-05-20 19:59:47.814
144.0, 22719.78827950815, 0.0, 0.0, 0.0, 0.0, 0.0, 0.0, 0.0, 0.016, -0.04, 1.028, 192.0, 0.0, 0.0, 0.0, 0.0, 0.0, 0.0, 0.0, 0.0, 0.0, 1.621555187814853E9, 0.0, 2021-05-20 19:59:47.814
145.0, 22657.87394736695, 0.0, 0.0, 0.0, 0.0, 0.0, 0.0, 0.0, 0.016, -0.04, 1.028, 192.0, 0.0, 0.0, 0.0, 0.0, 0.0, 0.0, 0.0, 0.0, 0.0, 1.621555187823037E9, 0.0, 2021-05-20 19:59:47.823
146.0, 22652.554232186587, 0.0, 0.0, 0.0, 0.0, 0.0, 0.0, 0.0, 0.016, -0.04, 1.028, 192.0, 0.0, 0.0, 0.0, 0.0, 0.0, 0.0, 0.0, 0.0, 0.0, 1.621555187823049E9, 0.0, 2021-05-20 19:59:47.823
147.0, 22771.59962315555, 0.0, 0.0, 0.0, 0.0, 0.0, 0.0, 0.0, 0.016, -0.04, 1.028, 192.0, 0.0, 0.0, 0.0, 0.0, 0.0, 0.0, 0.0, 0.0, 0.0, 1.621555187829905E9, 0.0, 2021-05-20 19:59:47.829
148.0, 22638.58439190202, 0.0, 0.0, 0.0, 0.0, 0.0, 0.0, 0.0, 0.016, -0.04, 1.028, 192.0, 0.0, 0.0, 0.0, 0.0, 0.0, 0.0, 0.0, 0.0, 0.0, 1.621555187837149E9, 0.0, 2021-05-20 19:59:47.837
149.0, 22507.312596716, 0.0, 0.0, 0.0, 0.0, 0.0, 0.0, 0.0, 0.016, -0.038, 1.024, 192.0, 0.0, 128.0, 254.0, 208.0, 32.0, 0.0, 0.0, 0.0, 0.0, 1.62155518783718E9, 0.0, 2021-05-20 19:59:47.837
150.0, 22601.927530995315, 0.0, 0.0, 0.0, 0.0, 0.0, 0.0, 0.0, 0.016, -0.038, 1.024, 192.0, 0.0, 0.0, 0.0, 0.0, 0.0, 0.0, 0.0, 0.0, 0.0, 1.621555187844624E9, 0.0, 2021-05-20 19:59:47.844
151.0, 22640.931325069825, 0.0, 0.0, 0.0, 0.0, 0.0, 0.0, 0.0, 0.016, -0.038, 1.024, 192.0, 0.0, 0.0, 0.0, 0.0, 0.0, 0.0, 0.0, 0.0, 0.0, 1.621555187844631E9, 0.0, 2021-05-20 19:59:47.844
152.0, 22671.128531828945, 0.0, 0.0, 0.0, 0.0, 0.0, 0.0, 0.0, 0.016, -0.038, 1.024, 192.0, 0.0, 0.0, 0.0, 0.0, 0.0, 0.0, 0.0, 0.0, 0.0, 1.62155518785263E9, 0.0, 2021-05-20 19:59:47.852
153.0, 22599.401783871865, 0.0, 0.0, 0.0, 0.0, 0.0, 0.0, 0.0, 0.016, -0.038, 1.024, 192.0, 0.0, 0.0, 0.0, 0.0, 0.0, 0.0, 0.0, 0.0, 0.0, 1.621555187852637E9, 0.0, 2021-05-20 19:59:47.852
154.0, 22495.13089598786, 0.0, 0.0, 0.0, 0.0, 0.0, 0.0, 0.0, 0.016, -0.038, 1.024, 192.0, 0.0, 0.0, 0.0, 0.0, 0.0, 0.0, 0.0, 0.0, 0.0, 1.621555187861974E9, 0.0, 2021-05-20 19:59:47.861
155.0, 22520.813050367004, 0.0, 0.0, 0.0, 0.0, 0.0, 0.0, 0.0, 0.016, -0.038, 1.024, 192.0, 0.0, 0.0, 0.0, 0.0, 0.0, 0.0, 0.0, 0.0, 0.0, 1.621555187861981E9, 0.0, 2021-05-20 19:59:47.861
156.0, 22452.39436058931, 0.0, 0.0, 0.0, 0.0, 0.0, 0.0, 0.0, 0.016, -0.038, 1.024, 192.0, 0.0, 0.0, 0.0, 0.0, 0.0, 0.0, 0.0, 0.0, 0.0, 1.621555187868016E9, 0.0, 2021-05-20 19:59:47.868
157.0, 22475.059029466993, 0.0, 0.0, 0.0, 0.0, 0.0, 0.0, 0.0, 0.016, -0.038, 1.024, 192.0, 0.0, 0.0, 0.0, 0.0, 0.0, 0.0, 0.0, 0.0, 0.0, 1.621555187868024E9, 0.0, 2021-05-20 19:59:47.868
158.0, 22461.64798279381, 0.0, 0.0, 0.0, 0.0, 0.0, 0.0, 0.0, 0.016, -0.038, 1.024, 192.0, 0.0, 0.0, 0.0, 0.0, 0.0, 0.0, 0.0, 0.0, 0.0, 1.621555187875224E9, 0.0, 2021-05-20 19:59:47.875
159.0, 22465.514834584577, 0.0, 0.0, 0.0, 0.0, 0.0, 0.0, 0.0, 0.018000000000000002, -0.034, 1.032, 192.0, 0.0, 144.0, 254.0, 240.0, 32.0, 64.0, 0.0, 0.0, 0.0, 1.621555187875231E9, 0.0, 2021-05-20 19:59:47.875
160.0, 22498.77423033407, 0.0, 0.0, 0.0, 0.0, 0.0, 0.0, 0.0, 0.018000000000000002, -0.034, 1.032, 192.0, 0.0, 0.0, 0.0, 0.0, 0.0, 0.0, 0.0, 0.0, 0.0, 1.621555187883151E9, 0.0, 2021-05-20 19:59:47.883
161.0, 22509.950102561725, 0.0, 0.0, 0.0, 0.0, 0.0, 0.0, 0.0, 0.018000000000000002, -0.034, 1.032, 192.0, 0.0, 0.0, 0.0, 0.0, 0.0, 0.0, 0.0, 0.0, 0.0, 1.621555187883158E9, 0.0, 2021-05-20 19:59:47.883
162.0, 22458.36227635888, 0.0, 0.0, 0.0, 0.0, 0.0, 0.0, 0.0, 0.018000000000000002, -0.034, 1.032, 192.0, 0.0, 0.0, 0.0, 0.0, 0.0, 0.0, 0.0, 0.0, 0.0, 1.621555187890405E9, 0.0, 2021-05-20 19:59:47.890
163.0, 22442.581944773432, 0.0, 0.0, 0.0, 0.0, 0.0, 0.0, 0.0, 0.018000000000000002, -0.034, 1.032, 192.0, 0.0, 0.0, 0.0, 0.0, 0.0, 0.0, 0.0, 0.0, 0.0, 1.621555187890413E9, 0.0, 2021-05-20 19:59:47.890
164.0, 22505.50210541512, 0.0, 0.0, 0.0, 0.0, 0.0, 0.0, 0.0, 0.018000000000000002, -0.034, 1.032, 192.0, 0.0, 0.0, 0.0, 0.0, 0.0, 0.0, 0.0, 0.0, 0.0, 1.621555187896797E9, 0.0, 2021-05-20 19:59:47.896
165.0, 22518.13084103237, 0.0, 0.0, 0.0, 0.0, 0.0, 0.0, 0.0, 0.018000000000000002, -0.034, 1.032, 192.0, 0.0, 0.0, 0.0, 0.0, 0.0, 0.0, 0.0, 0.0, 0.0, 1.621555187904783E9, 0.0, 2021-05-20 19:59:47.904
166.0, 22440.05619764998, 0.0, 0.0, 0.0, 0.0, 0.0, 0.0, 0.0, 0.018000000000000002, -0.034, 1.032, 192.0, 0.0, 0.0, 0.0, 0.0, 0.0, 0.0, 0.0, 0.0, 0.0, 1.621555187904791E9, 0.0, 2021-05-20 19:59:47.904
167.0, 22384.847388845374, 0.0, 0.0, 0.0, 0.0, 0.0, 0.0, 0.0, 0.018000000000000002, -0.034, 1.032, 192.0, 0.0, 0.0, 0.0, 0.0, 0.0, 0.0, 0.0, 0.0, 0.0, 1.621555187912777E9, 0.0, 2021-05-20 19:59:47.912
168.0, 22470.67808755375, 0.0, 0.0, 0.0, 0.0, 0.0, 0.0, 0.0, 0.018000000000000002, -0.034, 1.032, 192.0, 0.0, 0.0, 0.0, 0.0, 0.0, 0.0, 0.0, 0.0, 0.0, 1.621555187912784E9, 0.0, 2021-05-20 19:59:47.912
169.0, 22505.54680890403, 0.0, 0.0, 0.0, 0.0, 0.0, 0.0, 0.0, 0.018000000000000002, -0.034, 1.03, 192.0, 0.0, 144.0, 254.0, 240.0, 32.0, 48.0, 0.0, 0.0, 0.0, 1.62155518791996E9, 0.0, 2021-05-20 19:59:47.919
170.0, 22425.01347363156, 0.0, 0.0, 0.0, 0.0, 0.0, 0.0, 0.0, 0.018000000000000002, -0.034, 1.03, 192.0, 0.0, 0.0, 0.0, 0.0, 0.0, 0.0, 0.0, 0.0, 0.0, 1.621555187919967E9, 0.0, 2021-05-20 19:59:47.919
171.0, 22414.374043270833, 0.0, 0.0, 0.0, 0.0, 0.0, 0.0, 0.0, 0.018000000000000002, -0.034, 1.03, 192.0, 0.0, 0.0, 0.0, 0.0, 0.0, 0.0, 0.0, 0.0, 0.0, 1.621555187928917E9, 0.0, 2021-05-20 19:59:47.928
172.0, 22506.574989148976, 0.0, 0.0, 0.0, 0.0, 0.0, 0.0, 0.0, 0.018000000000000002, -0.034, 1.03, 192.0, 0.0, 0.0, 0.0, 0.0, 0.0, 0.0, 0.0, 0.0, 0.0, 1.621555187928926E9, 0.0, 2021-05-20 19:59:47.928
173.0, 22491.26404419709, 0.0, 0.0, 0.0, 0.0, 0.0, 0.0, 0.0, 0.018000000000000002, -0.034, 1.03, 192.0, 0.0, 0.0, 0.0, 0.0, 0.0, 0.0, 0.0, 0.0, 0.0, 1.621555187935454E9, 0.0, 2021-05-20 19:59:47.935
174.0, 22431.24961033459, 0.0, 0.0, 0.0, 0.0, 0.0, 0.0, 0.0, 0.018000000000000002, -0.034, 1.03, 192.0, 0.0, 0.0, 0.0, 0.0, 0.0, 0.0, 0.0, 0.0, 0.0, 1.621555187935463E9, 0.0, 2021-05-20 19:59:47.935
175.0, 22417.726804939128, 0.0, 0.0, 0.0, 0.0, 0.0, 0.0, 0.0, 0.018000000000000002, -0.034, 1.03, 192.0, 0.0, 0.0, 0.0, 0.0, 0.0, 0.0, 0.0, 0.0, 0.0, 1.621555187943512E9, 0.0, 2021-05-20 19:59:47.943
176.0, 22442.179613373235, 0.0, 0.0, 0.0, 0.0, 0.0, 0.0, 0.0, 0.018000000000000002, -0.034, 1.03, 192.0, 0.0, 0.0, 0.0, 0.0, 0.0, 0.0, 0.0, 0.0, 0.0, 1.621555187943524E9, 0.0, 2021-05-20 19:59:47.943
177.0, 22449.1980611322, 0.0, 0.0, 0.0, 0.0, 0.0, 0.0, 0.0, 0.018000000000000002, -0.034, 1.03, 192.0, 0.0, 0.0, 0.0, 0.0, 0.0, 0.0, 0.0, 0.0, 0.0, 1.621555187950007E9, 0.0, 2021-05-20 19:59:47.950
178.0, 22424.789956187007, 0.0, 0.0, 0.0, 0.0, 0.0, 0.0, 0.0, 0.018000000000000002, -0.034, 1.03, 192.0, 0.0, 0.0, 0.0, 0.0, 0.0, 0.0, 0.0, 0.0, 0.0, 1.621555187950014E9, 0.0, 2021-05-20 19:59:47.950
179.0, 22427.67333122174, 0.0, 0.0, 0.0, 0.0, 0.0, 0.0, 0.0, 0.02, -0.038, 1.03, 192.0, 0.0, 160.0, 254.0, 208.0, 32.0, 48.0, 0.0, 0.0, 0.0, 1.62155518795721E9, 0.0, 2021-05-20 19:59:47.957
180.0, 22446.471148308654, 0.0, 0.0, 0.0, 0.0, 0.0, 0.0, 0.0, 0.02, -0.038, 1.03, 192.0, 0.0, 0.0, 0.0, 0.0, 0.0, 0.0, 0.0, 0.0, 0.0, 1.621555187965092E9, 0.0, 2021-05-20 19:59:47.965
181.0, 22496.270834955078, 0.0, 0.0, 0.0, 0.0, 0.0, 0.0, 0.0, 0.02, -0.038, 1.03, 192.0, 0.0, 0.0, 0.0, 0.0, 0.0, 0.0, 0.0, 0.0, 0.0, 1.6215551879651E9, 0.0, 2021-05-20 19:59:47.965
182.0, 22446.091168652914, 0.0, 0.0, 0.0, 0.0, 0.0, 0.0, 0.0, 0.02, -0.038, 1.03, 192.0, 0.0, 0.0, 0.0, 0.0, 0.0, 0.0, 0.0, 0.0, 0.0, 1.621555187973296E9, 0.0, 2021-05-20 19:59:47.973
183.0, 22384.847388845374, 0.0, 0.0, 0.0, 0.0, 0.0, 0.0, 0.0, 0.02, -0.038, 1.03, 192.0, 0.0, 0.0, 0.0, 0.0, 0.0, 0.0, 0.0, 0.0, 0.0, 1.621555187973316E9, 0.0, 2021-05-20 19:59:47.973
184.0, 22428.813270188963, 0.0, 0.0, 0.0, 0.0, 0.0, 0.0, 0.0, 0.02, -0.038, 1.03, 192.0, 0.0, 0.0, 0.0, 0.0, 0.0, 0.0, 0.0, 0.0, 0.0, 1.621555187979735E9, 0.0, 2021-05-20 19:59:47.979
185.0, 22499.668300112284, 0.0, 0.0, 0.0, 0.0, 0.0, 0.0, 0.0, 0.02, -0.038, 1.03, 192.0, 0.0, 0.0, 0.0, 0.0, 0.0, 0.0, 0.0, 0.0, 0.0, 1.621555187979742E9, 0.0, 2021-05-20 19:59:47.979
186.0, 22480.06582022498, 0.0, 0.0, 0.0, 0.0, 0.0, 0.0, 0.0, 0.02, -0.038, 1.03, 192.0, 0.0, 0.0, 0.0, 0.0, 0.0, 0.0, 0.0, 0.0, 0.0, 1.621555187987823E9, 0.0, 2021-05-20 19:59:47.987
187.0, 22381.47227543262, 0.0, 0.0, 0.0, 0.0, 0.0, 0.0, 0.0, 0.02, -0.038, 1.03, 192.0, 0.0, 0.0, 0.0, 0.0, 0.0, 0.0, 0.0, 0.0, 0.0, 1.621555187987852E9, 0.0, 2021-05-20 19:59:47.987
188.0, 22362.27212694551, 0.0, 0.0, 0.0, 0.0, 0.0, 0.0, 0.0, 0.022, -0.042, 1.032, 192.0, 0.0, 176.0, 254.0, 176.0, 32.0, 64.0, 0.0, 0.0, 0.0, 1.621555187995756E9, 0.0, 2021-05-20 19:59:47.995
189.0, 22524.3669777354, 0.0, 0.0, 0.0, 0.0, 0.0, 0.0, 0.0, 0.022, -0.042, 1.032, 192.0, 0.0, 0.0, 0.0, 0.0, 0.0, 0.0, 0.0, 0.0, 0.0, 1.621555187995764E9, 0.0, 2021-05-20 19:59:47.995
190.0, 22535.431091240775, 0.0, 0.0, 0.0, 0.0, 0.0, 0.0, 0.0, 0.022, -0.042, 1.032, 192.0, 0.0, 0.0, 0.0, 0.0, 0.0, 0.0, 0.0, 0.0, 0.0, 1.621555188002425E9, 0.0, 2021-05-20 19:59:48.002
191.0, 22452.68493326723, 0.0, 0.0, 0.0, 0.0, 0.0, 0.0, 0.0, 0.022, -0.042, 1.032, 192.0, 0.0, 0.0, 0.0, 0.0, 0.0, 0.0, 0.0, 0.0, 0.0, 1.621555188002434E9, 0.0, 2021-05-20 19:59:48.002
192.0, 22425.63932247631, 0.0, 0.0, 0.0, 0.0, 0.0, 0.0, 0.0, 0.022, -0.042, 1.032, 192.0, 0.0, 0.0, 0.0, 0.0, 0.0, 0.0, 0.0, 0.0, 0.0, 1.621555188010402E9, 0.0, 2021-05-20 19:59:48.010
193.0, 22490.21351220769, 0.0, 0.0, 0.0, 0.0, 0.0, 0.0, 0.0, 0.022, -0.042, 1.032, 192.0, 0.0, 0.0, 0.0, 0.0, 0.0, 0.0, 0.0, 0.0, 0.0, 1.621555188010409E9, 0.0, 2021-05-20 19:59:48.010
194.0, 22535.98988485216, 0.0, 0.0, 0.0, 0.0, 0.0, 0.0, 0.0, 0.022, -0.042, 1.032, 192.0, 0.0, 0.0, 0.0, 0.0, 0.0, 0.0, 0.0, 0.0, 0.0, 1.621555188017292E9, 0.0, 2021-05-20 19:59:48.017
195.0, 22407.422650745233, 0.0, 0.0, 0.0, 0.0, 0.0, 0.0, 0.0, 0.022, -0.042, 1.032, 192.0, 0.0, 0.0, 0.0, 0.0, 0.0, 0.0, 0.0, 0.0, 0.0, 1.621555188025286E9, 0.0, 2021-05-20 19:59:48.025
196.0, 22405.500400722078, 0.0, 0.0, 0.0, 0.0, 0.0, 0.0, 0.0, 0.022, -0.042, 1.032, 192.0, 0.0, 0.0, 0.0, 0.0, 0.0, 0.0, 0.0, 0.0, 0.0, 1.621555188025294E9, 0.0, 2021-05-20 19:59:48.025
197.0, 22476.19896843421, 0.0, 0.0, 0.0, 0.0, 0.0, 0.0, 0.0, 0.022, -0.042, 1.032, 192.0, 0.0, 0.0, 0.0, 0.0, 0.0, 0.0, 0.0, 0.0, 0.0, 1.621555188032021E9, 0.0, 2021-05-20 19:59:48.032
198.0, 22520.74599513364, 0.0, 0.0, 0.0, 0.0, 0.0, 0.0, 0.0, 0.028, -0.044, 1.03, 192.0, 0.0, 224.0, 254.0, 160.0, 32.0, 48.0, 0.0, 0.0, 0.0, 1.621555188032028E9, 0.0, 2021-05-20 19:59:48.032
199.0, 22503.401041436322, 0.0, 0.0, 0.0, 0.0, 0.0, 0.0, 0.0, 0.028, -0.044, 1.03, 192.0, 0.0, 0.0, 0.0, 0.0, 0.0, 0.0, 0.0, 0.0, 0.0, 1.621555188041388E9, 0.0, 2021-05-20 19:59:48.041
200.0, 22480.579910347453, 0.0, 0.0, 0.0, 0.0, 0.0, 0.0, 0.0, 0.028, -0.044, 1.03, 192.0, 0.0, 0.0, 0.0, 0.0, 0.0, 0.0, 0.0, 0.0, 0.0, 1.621555188041395E9, 0.0, 2021-05-20 19:59:48.041
201.0, 22455.97063970216, 0.0, 0.0, 0.0, 0.0, 0.0, 0.0, 0.0, 0.028, -0.044, 1.03, 192.0, 0.0, 0.0, 0.0, 0.0, 0.0, 0.0, 0.0, 0.0, 0.0, 1.62155518804792E9, 0.0, 2021-05-20 19:59:48.047
202.0, 22522.51178294561, 0.0, 0.0, 0.0, 0.0, 0.0, 0.0, 0.0, 0.028, -0.044, 1.03, 192.0, 0.0, 0.0, 0.0, 0.0, 0.0, 0.0, 0.0, 0.0, 0.0, 1.621555188047927E9, 0.0, 2021-05-20 19:59:48.047
203.0, 22527.004483581124, 0.0, 0.0, 0.0, 0.0, 0.0, 0.0, 0.0, 0.028, -0.044, 1.03, 192.0, 0.0, 0.0, 0.0, 0.0, 0.0, 0.0, 0.0, 0.0, 0.0, 1.62155518805525E9, 0.0, 2021-05-20 19:59:48.055
204.0, 22464.799578762006, 0.0, 0.0, 0.0, 0.0, 0.0, 0.0, 0.0, 0.028, -0.044, 1.03, 192.0, 0.0, 0.0, 0.0, 0.0, 0.0, 0.0, 0.0, 0.0, 0.0, 1.621555188055259E9, 0.0, 2021-05-20 19:59:48.055
205.0, 22482.055125481504, 0.0, 0.0, 0.0, 0.0, 0.0, 0.0, 0.0, 0.028, -0.044, 1.03, 192.0, 0.0, 0.0, 0.0, 0.0, 0.0, 0.0, 0.0, 0.0, 0.0, 1.62155518806264E9, 0.0, 2021-05-20 19:59:48.062
206.0, 22551.770216437606, 0.0, 0.0, 0.0, 0.0, 0.0, 0.0, 0.0, 0.028, -0.044, 1.03, 192.0, 0.0, 0.0, 0.0, 0.0, 0.0, 0.0, 0.0, 0.0, 0.0, 1.621555188062647E9, 0.0, 2021-05-20 19:59:48.062
207.0, 22514.375747963877, 0.0, 0.0, 0.0, 0.0, 0.0, 0.0, 0.0, 0.028, -0.044, 1.03, 192.0, 0.0, 0.0, 0.0, 0.0, 0.0, 0.0, 0.0, 0.0, 0.0, 1.621555188070663E9, 0.0, 2021-05-20 19:59:48.070
208.0, 22353.95727800814, 0.0, 0.0, 0.0, 0.0, 0.0, 0.0, 0.0, 0.024, -0.04, 1.032, 192.0, 0.0, 192.0, 254.0, 192.0, 32.0, 64.0, 0.0, 0.0, 0.0, 1.621555188070671E9, 0.0, 2021-05-20 19:59:48.070
209.0, 22332.387844608766, 0.0, 0.0, 0.0, 0.0, 0.0, 0.0, 0.0, 0.024, -0.04, 1.032, 192.0, 0.0, 0.0, 0.0, 0.0, 0.0, 0.0, 0.0, 0.0, 0.0, 1.621555188077681E9, 0.0, 2021-05-20 19:59:48.077
210.0, 22439.45270054969, 0.0, 0.0, 0.0, 0.0, 0.0, 0.0, 0.0, 0.024, -0.04, 1.032, 192.0, 0.0, 0.0, 0.0, 0.0, 0.0, 0.0, 0.0, 0.0, 0.0, 1.621555188084791E9, 0.0, 2021-05-20 19:59:48.084
211.0, 22475.304898656, 0.0, 0.0, 0.0, 0.0, 0.0, 0.0, 0.0, 0.024, -0.04, 1.032, 192.0, 0.0, 0.0, 0.0, 0.0, 0.0, 0.0, 0.0, 0.0, 0.0, 1.621555188084798E9, 0.0, 2021-05-20 19:59:48.084
212.0, 22477.383610890345, 0.0, 0.0, 0.0, 0.0, 0.0, 0.0, 0.0, 0.024, -0.04, 1.032, 192.0, 0.0, 0.0, 0.0, 0.0, 0.0, 0.0, 0.0, 0.0, 0.0, 1.621555188092321E9, 0.0, 2021-05-20 19:59:48.092
213.0, 22440.21265986117, 0.0, 0.0, 0.0, 0.0, 0.0, 0.0, 0.0, 0.024, -0.04, 1.032, 192.0, 0.0, 0.0, 0.0, 0.0, 0.0, 0.0, 0.0, 0.0, 0.0, 1.621555188092329E9, 0.0, 2021-05-20 19:59:48.092
214.0, 22468.062933452482, 0.0, 0.0, 0.0, 0.0, 0.0, 0.0, 0.0, 0.024, -0.04, 1.032, 192.0, 0.0, 0.0, 0.0, 0.0, 0.0, 0.0, 0.0, 0.0, 0.0, 1.621555188100399E9, 0.0, 2021-05-20 19:59:48.100
215.0, 22416.56451422745, 0.0, 0.0, 0.0, 0.0, 0.0, 0.0, 0.0, 0.024, -0.04, 1.032, 192.0, 0.0, 0.0, 0.0, 0.0, 0.0, 0.0, 0.0, 0.0, 0.0, 1.621555188100407E9, 0.0, 2021-05-20 19:59:48.100
216.0, 22262.6056984193, 0.0, 0.0, 0.0, 0.0, 0.0, 0.0, 0.0, 0.024, -0.04, 1.032, 192.0, 0.0, 0.0, 0.0, 0.0, 0.0, 0.0, 0.0, 0.0, 0.0, 1.621555188108413E9, 0.0, 2021-05-20 19:59:48.108
217.0, 22426.01930213205, 0.0, 0.0, 0.0, 0.0, 0.0, 0.0, 0.0, 0.024, -0.04, 1.032, 192.0, 0.0, 0.0, 0.0, 0.0, 0.0, 0.0, 0.0, 0.0, 0.0, 1.621555188108422E9, 0.0, 2021-05-20 19:59:48.108
218.0, 22397.990214585094, 0.0, 0.0, 0.0, 0.0, 0.0, 0.0, 0.0, 0.022, -0.042, 1.026, 192.0, 0.0, 176.0, 254.0, 176.0, 32.0, 16.0, 0.0, 0.0, 0.0, 1.621555188114921E9, 0.0, 2021-05-20 19:59:48.114
219.0, 22427.025130632537, 0.0, 0.0, 0.0, 0.0, 0.0, 0.0, 0.0, 0.022, -0.042, 1.026, 192.0, 0.0, 0.0, 0.0, 0.0, 0.0, 0.0, 0.0, 0.0, 0.0, 1.621555188114928E9, 0.0, 2021-05-20 19:59:48.114
220.0, 22439.519755783054, 0.0, 0.0, 0.0, 0.0, 0.0, 0.0, 0.0, 0.022, -0.042, 1.026, 192.0, 0.0, 0.0, 0.0, 0.0, 0.0, 0.0, 0.0, 0.0, 0.0, 1.621555188122873E9, 0.0, 2021-05-20 19:59:48.122
221.0, 22399.398374485776, 0.0, 0.0, 0.0, 0.0, 0.0, 0.0, 0.0, 0.022, -0.042, 1.026, 192.0, 0.0, 0.0, 0.0, 0.0, 0.0, 0.0, 0.0, 0.0, 0.0, 1.621555188122882E9, 0.0, 2021-05-20 19:59:48.122
222.0, 22416.095127593893, 0.0, 0.0, 0.0, 0.0, 0.0, 0.0, 0.0, 0.022, -0.042, 1.026, 192.0, 0.0, 0.0, 0.0, 0.0, 0.0, 0.0, 0.0, 0.0, 0.0, 1.621555188130849E9, 0.0, 2021-05-20 19:59:48.130
223.0, 22449.555689043485, 0.0, 0.0, 0.0, 0.0, 0.0, 0.0, 0.0, 0.022, -0.042, 1.026, 192.0, 0.0, 0.0, 0.0, 0.0, 0.0, 0.0, 0.0, 0.0, 0.0, 1.621555188130856E9, 0.0, 2021-05-20 19:59:48.130
224.0, 22419.693758451198, 0.0, 0.0, 0.0, 0.0, 0.0, 0.0, 0.0, 0.022, -0.042, 1.026, 192.0, 0.0, 0.0, 0.0, 0.0, 0.0, 0.0, 0.0, 0.0, 0.0, 1.621555188138013E9, 0.0, 2021-05-20 19:59:48.138
225.0, 22430.221430089645, 0.0, 0.0, 0.0, 0.0, 0.0, 0.0, 0.0, 0.022, -0.042, 1.026, 192.0, 0.0, 0.0, 0.0, 0.0, 0.0, 0.0, 0.0, 0.0, 0.0, 1.621555188138028E9, 0.0, 2021-05-20 19:59:48.138
226.0, 22399.219560530135, 0.0, 0.0, 0.0, 0.0, 0.0, 0.0, 0.0, 0.022, -0.042, 1.026, 192.0, 0.0, 0.0, 0.0, 0.0, 0.0, 0.0, 0.0, 0.0, 0.0, 1.621555188144498E9, 0.0, 2021-05-20 19:59:48.144
227.0, 22471.661564309787, 0.0, 0.0, 0.0, 0.0, 0.0, 0.0, 0.0, 0.022, -0.042, 1.026, 192.0, 0.0, 0.0, 0.0, 0.0, 0.0, 0.0, 0.0, 0.0, 0.0, 1.62155518815254E9, 0.0, 2021-05-20 19:59:48.152
228.0, 22484.938500516237, 0.0, 0.0, 0.0, 0.0, 0.0, 0.0, 0.0, 0.018000000000000002, -0.034, 1.022, 192.0, 0.0, 144.0, 254.0, 240.0, 31.0, 240.0, 0.0, 0.0, 0.0, 1.621555188152547E9, 0.0, 2021-05-20 19:59:48.152
229.0, 22502.484619913652, 0.0, 0.0, 0.0, 0.0, 0.0, 0.0, 0.0, 0.018000000000000002, -0.034, 1.022, 192.0, 0.0, 0.0, 0.0, 0.0, 0.0, 0.0, 0.0, 0.0, 0.0, 1.621555188160641E9, 0.0, 2021-05-20 19:59:48.160
230.0, 22614.91389452385, 0.0, 0.0, 0.0, 0.0, 0.0, 0.0, 0.0, 0.018000000000000002, -0.034, 1.022, 192.0, 0.0, 0.0, 0.0, 0.0, 0.0, 0.0, 0.0, 0.0, 0.0, 1.621555188160648E9, 0.0, 2021-05-20 19:59:48.160
231.0, 22741.69298907435, 0.0, 0.0, 0.0, 0.0, 0.0, 0.0, 0.0, 0.018000000000000002, -0.034, 1.022, 192.0, 0.0, 0.0, 0.0, 0.0, 0.0, 0.0, 0.0, 0.0, 0.0, 1.621555188167686E9, 0.0, 2021-05-20 19:59:48.167
232.0, 22804.948425882867, 0.0, 0.0, 0.0, 0.0, 0.0, 0.0, 0.0, 0.018000000000000002, -0.034, 1.022, 192.0, 0.0, 0.0, 0.0, 0.0, 0.0, 0.0, 0.0, 0.0, 0.0, 1.621555188167693E9, 0.0, 2021-05-20 19:59:48.167
233.0, 22755.372256681, 0.0, 0.0, 0.0, 0.0, 0.0, 0.0, 0.0, 0.018000000000000002, -0.034, 1.022, 192.0, 0.0, 0.0, 0.0, 0.0, 0.0, 0.0, 0.0, 0.0, 0.0, 1.621555188175455E9, 0.0, 2021-05-20 19:59:48.175
234.0, 22692.653261739408, 0.0, 0.0, 0.0, 0.0, 0.0, 0.0, 0.0, 0.018000000000000002, -0.034, 1.022, 192.0, 0.0, 0.0, 0.0, 0.0, 0.0, 0.0, 0.0, 0.0, 0.0, 1.621555188175494E9, 0.0, 2021-05-20 19:59:48.175
235.0, 22693.592035006528, 0.0, 0.0, 0.0, 0.0, 0.0, 0.0, 0.0, 0.018000000000000002, -0.034, 1.022, 192.0, 0.0, 0.0, 0.0, 0.0, 0.0, 0.0, 0.0, 0.0, 0.0, 1.621555188183287E9, 0.0, 2021-05-20 19:59:48.183
236.0, 22569.51750153512, 0.0, 0.0, 0.0, 0.0, 0.0, 0.0, 0.0, 0.018000000000000002, -0.034, 1.022, 192.0, 0.0, 0.0, 0.0, 0.0, 0.0, 0.0, 0.0, 0.0, 0.0, 1.621555188183297E9, 0.0, 2021-05-20 19:59:48.183
237.0, 22347.51997560501, 0.0, 0.0, 0.0, 0.0, 0.0, 0.0, 0.0, 0.018000000000000002, -0.034, 1.022, 192.0, 0.0, 0.0, 0.0, 0.0, 0.0, 0.0, 0.0, 0.0, 0.0, 1.621555188190903E9, 0.0, 2021-05-20 19:59:48.190
238.0, 22269.870015367273, 0.0, 0.0, 0.0, 0.0, 0.0, 0.0, 0.0, 0.016, -0.038, 1.024, 192.0, 0.0, 128.0, 254.0, 208.0, 32.0, 0.0, 0.0, 0.0, 0.0, 1.62155518819092E9, 0.0, 2021-05-20 19:59:48.190
239.0, 22322.150745648236, 0.0, 0.0, 0.0, 0.0, 0.0, 0.0, 0.0, 0.016, -0.038, 1.024, 192.0, 0.0, 0.0, 0.0, 0.0, 0.0, 0.0, 0.0, 0.0, 0.0, 1.621555188197931E9, 0.0, 2021-05-20 19:59:48.197
240.0, 22394.01160407205, 0.0, 0.0, 0.0, 0.0, 0.0, 0.0, 0.0, 0.016, -0.038, 1.024, 192.0, 0.0, 0.0, 0.0, 0.0, 0.0, 0.0, 0.0, 0.0, 0.0, 1.621555188197939E9, 0.0, 2021-05-20 19:59:48.197
241.0, 22383.394525455777, 0.0, 0.0, 0.0, 0.0, 0.0, 0.0, 0.0, 0.016, -0.038, 1.024, 192.0, 0.0, 0.0, 0.0, 0.0, 0.0, 0.0, 0.0, 0.0, 0.0, 1.621555188204891E9, 0.0, 2021-05-20 19:59:48.204
242.0, 22370.966955538628, 0.0, 0.0, 0.0, 0.0, 0.0, 0.0, 0.0, 0.016, -0.038, 1.024, 192.0, 0.0, 0.0, 0.0, 0.0, 0.0, 0.0, 0.0, 0.0, 0.0, 1.621555188212837E9, 0.0, 2021-05-20 19:59:48.212
243.0, 22422.10774685237, 0.0, 0.0, 0.0, 0.0, 0.0, 0.0, 0.0, 0.016, -0.038, 1.024, 192.0, 0.0, 0.0, 0.0, 0.0, 0.0, 0.0, 0.0, 0.0, 0.0, 1.621555188212845E9, 0.0, 2021-05-20 19:59:48.212
244.0, 22436.211697603667, 0.0, 0.0, 0.0, 0.0, 0.0, 0.0, 0.0, 0.016, -0.038, 1.024, 192.0, 0.0, 0.0, 0.0, 0.0, 0.0, 0.0, 0.0, 0.0, 0.0, 1.621555188219919E9, 0.0, 2021-05-20 19:59:48.219
245.0, 22387.283728991002, 0.0, 0.0, 0.0, 0.0, 0.0, 0.0, 0.0, 0.016, -0.038, 1.024, 192.0, 0.0, 0.0, 0.0, 0.0, 0.0, 0.0, 0.0, 0.0, 0.0, 1.621555188219926E9, 0.0, 2021-05-20 19:59:48.219
246.0, 22411.691833936195, 0.0, 0.0, 0.0, 0.0, 0.0, 0.0, 0.0, 0.016, -0.038, 1.024, 192.0, 0.0, 0.0, 0.0, 0.0, 0.0, 0.0, 0.0, 0.0, 0.0, 1.621555188227583E9, 0.0, 2021-05-20 19:59:48.227
247.0, 22367.413028170235, 0.0, 0.0, 0.0, 0.0, 0.0, 0.0, 0.0, 0.016, -0.038, 1.024, 192.0, 0.0, 0.0, 0.0, 0.0, 0.0, 0.0, 0.0, 0.0, 0.0, 1.62155518822759E9, 0.0, 2021-05-20 19:59:48.227
248.0, 22469.292279397523, 0.0, 0.0, 0.0, 0.0, 0.0, 0.0, 0.0, 0.016, -0.04, 1.028, 192.0, 0.0, 128.0, 254.0, 192.0, 32.0, 32.0, 0.0, 0.0, 0.0, 1.62155518823549E9, 0.0, 2021-05-20 19:59:48.235
249.0, 22450.96384894417, 0.0, 0.0, 0.0, 0.0, 0.0, 0.0, 0.0, 0.016, -0.04, 1.028, 192.0, 0.0, 0.0, 0.0, 0.0, 0.0, 0.0, 0.0, 0.0, 0.0, 1.621555188235498E9, 0.0, 2021-05-20 19:59:48.235
250.0, 22423.873534664337, 0.0, 0.0, 0.0, 0.0, 0.0, 0.0, 0.0, 0.016, -0.04, 1.028, 192.0, 0.0, 0.0, 0.0, 0.0, 0.0, 0.0, 0.0, 0.0, 0.0, 1.621555188243653E9, 0.0, 2021-05-20 19:59:48.243
251.0, 22425.14758409829, 0.0, 0.0, 0.0, 0.0, 0.0, 0.0, 0.0, 0.016, -0.04, 1.028, 192.0, 0.0, 0.0, 0.0, 0.0, 0.0, 0.0, 0.0, 0.0, 0.0, 1.621555188243661E9, 0.0, 2021-05-20 19:59:48.243
252.0, 22456.752950758095, 0.0, 0.0, 0.0, 0.0, 0.0, 0.0, 0.0, 0.016, -0.04, 1.028, 192.0, 0.0, 0.0, 0.0, 0.0, 0.0, 0.0, 0.0, 0.0, 0.0, 1.621555188250232E9, 0.0, 2021-05-20 19:59:48.250
253.0, 22412.116517080845, 0.0, 0.0, 0.0, 0.0, 0.0, 0.0, 0.0, 0.016, -0.04, 1.028, 192.0, 0.0, 0.0, 0.0, 0.0, 0.0, 0.0, 0.0, 0.0, 0.0, 1.621555188250245E9, 0.0, 2021-05-20 19:59:48.250
254.0, 22404.963958855147, 0.0, 0.0, 0.0, 0.0, 0.0, 0.0, 0.0, 0.016, -0.04, 1.028, 192.0, 0.0, 0.0, 0.0, 0.0, 0.0, 0.0, 0.0, 0.0, 0.0, 1.621555188258033E9, 0.0, 2021-05-20 19:59:48.258
255.0, 22408.517886223544, 0.0, 0.0, 0.0, 0.0, 0.0, 0.0, 0.0, 0.016, -0.04, 1.028, 192.0, 0.0, 0.0, 0.0, 0.0, 0.0, 0.0, 0.0, 0.0, 0.0, 1.621555188258041E9, 0.0, 2021-05-20 19:59:48.258
0.0, 22475.528416100555, 0.0, 0.0, 0.0, 0.0, 0.0, 0.0, 0.0, 0.016, -0.04, 1.028, 192.0, 0.0, 0.0, 0.0, 0.0, 0.0, 0.0, 0.0, 0.0, 0.0, 1.621555188265158E9, 0.0, 2021-05-20 19:59:48.265
1.0, 22460.619802548863, 0.0, 0.0, 0.0, 0.0, 0.0, 0.0, 0.0, 0.016, -0.04, 1.028, 192.0, 0.0, 128.0, 254.0, 192.0, 32.0, 32.0, 0.0, 0.0, 0.0, 1.621555188273357E9, 0.0, 2021-05-20 19:59:48.273
2.0, 22432.724825468642, 0.0, 0.0, 0.0, 0.0, 0.0, 0.0, 0.0, 0.016, -0.04, 1.028, 192.0, 0.0, 0.0, 0.0, 0.0, 0.0, 0.0, 0.0, 0.0, 0.0, 1.62155518827338E9, 0.0, 2021-05-20 19:59:48.273
3.0, 22401.81236288695, 0.0, 0.0, 0.0, 0.0, 0.0, 0.0, 0.0, 0.016, -0.04, 1.028, 192.0, 0.0, 0.0, 0.0, 0.0, 0.0, 0.0, 0.0, 0.0, 0.0, 1.621555188279723E9, 0.0, 2021-05-20 19:59:48.279
4.0, 22461.737389771628, 0.0, 0.0, 0.0, 0.0, 0.0, 0.0, 0.0, 0.016, -0.04, 1.028, 192.0, 0.0, 0.0, 0.0, 0.0, 0.0, 0.0, 0.0, 0.0, 0.0, 1.62155518827973E9, 0.0, 2021-05-20 19:59:48.279
5.0, 22460.239822893123, 0.0, 0.0, 0.0, 0.0, 0.0, 0.0, 0.0, 0.016, -0.04, 1.028, 192.0, 0.0, 0.0, 0.0, 0.0, 0.0, 0.0, 0.0, 0.0, 0.0, 1.621555188287897E9, 0.0, 2021-05-20 19:59:48.287
6.0, 22448.907488454282, 0.0, 0.0, 0.0, 0.0, 0.0, 0.0, 0.0, 0.016, -0.04, 1.028, 192.0, 0.0, 0.0, 0.0, 0.0, 0.0, 0.0, 0.0, 0.0, 0.0, 1.621555188287916E9, 0.0, 2021-05-20 19:59:48.287
7.0, 22466.72182878516, 0.0, 0.0, 0.0, 0.0, 0.0, 0.0, 0.0, 0.016, -0.04, 1.028, 192.0, 0.0, 0.0, 0.0, 0.0, 0.0, 0.0, 0.0, 0.0, 0.0, 1.621555188297242E9, 0.0, 2021-05-20 19:59:48.297
8.0, 22407.377947256322, 0.0, 0.0, 0.0, 0.0, 0.0, 0.0, 0.0, 0.016, -0.04, 1.028, 192.0, 0.0, 0.0, 0.0, 0.0, 0.0, 0.0, 0.0, 0.0, 0.0, 1.621555188297249E9, 0.0, 2021-05-20 19:59:48.297
9.0, 22400.62772043082, 0.0, 0.0, 0.0, 0.0, 0.0, 0.0, 0.0, 0.016, -0.04, 1.028, 192.0, 0.0, 0.0, 0.0, 0.0, 0.0, 0.0, 0.0, 0.0, 0.0, 1.621555188303471E9, 0.0, 2021-05-20 19:59:48.303
10.0, 22432.031921390524, 0.0, 0.0, 0.0, 0.0, 0.0, 0.0, 0.0, 0.016, -0.04, 1.028, 192.0, 0.0, 0.0, 0.0, 0.0, 0.0, 0.0, 0.0, 0.0, 0.0, 1.621555188303481E9, 0.0, 2021-05-20 19:59:48.303
11.0, 22420.163145084756, 0.0, 0.0, 0.0, 0.0, 0.0, 0.0, 0.0, 0.014, -0.038, 1.026, 192.0, 0.0, 112.0, 254.0, 208.0, 32.0, 16.0, 0.0, 0.0, 0.0, 1.621555188310483E9, 0.0, 2021-05-20 19:59:48.310
12.0, 22483.41858189328, 0.0, 0.0, 0.0, 0.0, 0.0, 0.0, 0.0, 0.014, -0.038, 1.026, 192.0, 0.0, 0.0, 0.0, 0.0, 0.0, 0.0, 0.0, 0.0, 0.0, 1.621555188310491E9, 0.0, 2021-05-20 19:59:48.310
13.0, 22576.26772836062, 0.0, 0.0, 0.0, 0.0, 0.0, 0.0, 0.0, 0.014, -0.038, 1.026, 192.0, 0.0, 0.0, 0.0, 0.0, 0.0, 0.0, 0.0, 0.0, 0.0, 1.621555188318429E9, 0.0, 2021-05-20 19:59:48.318
14.0, 22500.294148957033, 0.0, 0.0, 0.0, 0.0, 0.0, 0.0, 0.0, 0.014, -0.038, 1.026, 192.0, 0.0, 0.0, 0.0, 0.0, 0.0, 0.0, 0.0, 0.0, 0.0, 1.62155518831844E9, 0.0, 2021-05-20 19:59:48.318
15.0, 22448.48280530963, 0.0, 0.0, 0.0, 0.0, 0.0, 0.0, 0.0, 0.014, -0.038, 1.026, 192.0, 0.0, 0.0, 0.0, 0.0, 0.0, 0.0, 0.0, 0.0, 0.0, 1.621555188325519E9, 0.0, 2021-05-20 19:59:48.325
16.0, 22435.54114527001, 0.0, 0.0, 0.0, 0.0, 0.0, 0.0, 0.0, 0.014, -0.038, 1.026, 192.0, 0.0, 0.0, 0.0, 0.0, 0.0, 0.0, 0.0, 0.0, 0.0, 1.621555188333568E9, 0.0, 2021-05-20 19:59:48.333
17.0, 22527.518573703597, 0.0, 0.0, 0.0, 0.0, 0.0, 0.0, 0.0, 0.014, -0.038, 1.026, 192.0, 0.0, 0.0, 0.0, 0.0, 0.0, 0.0, 0.0, 0.0, 0.0, 1.621555188333581E9, 0.0, 2021-05-20 19:59:48.333
18.0, 22542.494242488654, 0.0, 0.0, 0.0, 0.0, 0.0, 0.0, 0.0, 0.014, -0.038, 1.026, 192.0, 0.0, 0.0, 0.0, 0.0, 0.0, 0.0, 0.0, 0.0, 0.0, 1.621555188341421E9, 0.0, 2021-05-20 19:59:48.341
19.0, 22478.54590160202, 0.0, 0.0, 0.0, 0.0, 0.0, 0.0, 0.0, 0.014, -0.038, 1.026, 192.0, 0.0, 0.0, 0.0, 0.0, 0.0, 0.0, 0.0, 0.0, 0.0, 1.621555188341428E9, 0.0, 2021-05-20 19:59:48.341
20.0, 22513.995768308137, 0.0, 0.0, 0.0, 0.0, 0.0, 0.0, 0.0, 0.014, -0.038, 1.026, 192.0, 0.0, 0.0, 0.0, 0.0, 0.0, 0.0, 0.0, 0.0, 0.0, 1.621555188347987E9, 0.0, 2021-05-20 19:59:48.347
21.0, 22518.22024801019, 0.0, 0.0, 0.0, 0.0, 0.0, 0.0, 0.0, 0.01, -0.042, 1.018, 192.0, 0.0, 80.0, 254.0, 176.0, 31.0, 208.0, 0.0, 0.0, 0.0, 1.621555188347994E9, 0.0, 2021-05-20 19:59:48.347
22.0, 22520.3660154779, 0.0, 0.0, 0.0, 0.0, 0.0, 0.0, 0.0, 0.01, -0.042, 1.018, 192.0, 0.0, 0.0, 0.0, 0.0, 0.0, 0.0, 0.0, 0.0, 0.0, 1.621555188356494E9, 0.0, 2021-05-20 19:59:48.356
23.0, 22527.093890558946, 0.0, 0.0, 0.0, 0.0, 0.0, 0.0, 0.0, 0.01, -0.042, 1.018, 192.0, 0.0, 0.0, 0.0, 0.0, 0.0, 0.0, 0.0, 0.0, 0.0, 1.621555188356502E9, 0.0, 2021-05-20 19:59:48.356
24.0, 22560.88972817537, 0.0, 0.0, 0.0, 0.0, 0.0, 0.0, 0.0, 0.01, -0.042, 1.018, 192.0, 0.0, 0.0, 0.0, 0.0, 0.0, 0.0, 0.0, 0.0, 0.0, 1.621555188362669E9, 0.0, 2021-05-20 19:59:48.362
25.0, 22591.869245990427, 0.0, 0.0, 0.0, 0.0, 0.0, 0.0, 0.0, 0.01, -0.042, 1.018, 192.0, 0.0, 0.0, 0.0, 0.0, 0.0, 0.0, 0.0, 0.0, 0.0, 1.621555188362677E9, 0.0, 2021-05-20 19:59:48.362
26.0, 22571.37269632491, 0.0, 0.0, 0.0, 0.0, 0.0, 0.0, 0.0, 0.01, -0.042, 1.018, 192.0, 0.0, 0.0, 0.0, 0.0, 0.0, 0.0, 0.0, 0.0, 0.0, 1.621555188372081E9, 0.0, 2021-05-20 19:59:48.372
27.0, 22483.373878404367, 0.0, 0.0, 0.0, 0.0, 0.0, 0.0, 0.0, 0.01, -0.042, 1.018, 192.0, 0.0, 0.0, 0.0, 0.0, 0.0, 0.0, 0.0, 0.0, 0.0, 1.621555188372091E9, 0.0, 2021-05-20 19:59:48.372
28.0, 22529.4184719823, 0.0, 0.0, 0.0, 0.0, 0.0, 0.0, 0.0, 0.01, -0.042, 1.018, 192.0, 0.0, 0.0, 0.0, 0.0, 0.0, 0.0, 0.0, 0.0, 0.0, 1.621555188378583E9, 0.0, 2021-05-20 19:59:48.378
29.0, 22602.843952517982, 0.0, 0.0, 0.0, 0.0, 0.0, 0.0, 0.0, 0.01, -0.042, 1.018, 192.0, 0.0, 0.0, 0.0, 0.0, 0.0, 0.0, 0.0, 0.0, 0.0, 1.621555188378592E9, 0.0, 2021-05-20 19:59:48.378
30.0, 22628.034368519115, 0.0, 0.0, 0.0, 0.0, 0.0, 0.0, 0.0, 0.01, -0.042, 1.018, 192.0, 0.0, 0.0, 0.0, 0.0, 0.0, 0.0, 0.0, 0.0, 0.0, 1.621555188384636E9, 0.0, 2021-05-20 19:59:48.384
31.0, 22600.3852606279, 0.0, 0.0, 0.0, 0.0, 0.0, 0.0, 0.0, 0.014, -0.042, 1.024, 192.0, 0.0, 112.0, 254.0, 176.0, 32.0, 0.0, 0.0, 0.0, 0.0, 1.621555188384643E9, 0.0, 2021-05-20 19:59:48.384
32.0, 22530.02196908259, 0.0, 0.0, 0.0, 0.0, 0.0, 0.0, 0.0, 0.014, -0.042, 1.024, 192.0, 0.0, 0.0, 0.0, 0.0, 0.0, 0.0, 0.0, 0.0, 0.0, 1.621555188392261E9, 0.0, 2021-05-20 19:59:48.392
33.0, 22535.16287030731, 0.0, 0.0, 0.0, 0.0, 0.0, 0.0, 0.0, 0.014, -0.042, 1.024, 192.0, 0.0, 0.0, 0.0, 0.0, 0.0, 0.0, 0.0, 0.0, 0.0, 1.621555188400262E9, 0.0, 2021-05-20 19:59:48.400
34.0, 22653.068322309056, 0.0, 0.0, 0.0, 0.0, 0.0, 0.0, 0.0, 0.014, -0.042, 1.024, 192.0, 0.0, 0.0, 0.0, 0.0, 0.0, 0.0, 0.0, 0.0, 0.0, 1.621555188400269E9, 0.0, 2021-05-20 19:59:48.400
35.0, 22642.227726248235, 0.0, 0.0, 0.0, 0.0, 0.0, 0.0, 0.0, 0.014, -0.042, 1.024, 192.0, 0.0, 0.0, 0.0, 0.0, 0.0, 0.0, 0.0, 0.0, 0.0, 1.621555188408306E9, 0.0, 2021-05-20 19:59:48.408
36.0, 22549.043303614057, 0.0, 0.0, 0.0, 0.0, 0.0, 0.0, 0.0, 0.014, -0.042, 1.024, 192.0, 0.0, 0.0, 0.0, 0.0, 0.0, 0.0, 0.0, 0.0, 0.0, 1.621555188408313E9, 0.0, 2021-05-20 19:59:48.408
37.0, 22560.84502468646, 0.0, 0.0, 0.0, 0.0, 0.0, 0.0, 0.0, 0.014, -0.042, 1.024, 192.0, 0.0, 0.0, 0.0, 0.0, 0.0, 0.0, 0.0, 0.0, 0.0, 1.621555188414976E9, 0.0, 2021-05-20 19:59:48.414
38.0, 22604.386222885398, 0.0, 0.0, 0.0, 0.0, 0.0, 0.0, 0.0, 0.014, -0.042, 1.024, 192.0, 0.0, 0.0, 0.0, 0.0, 0.0, 0.0, 0.0, 0.0, 0.0, 1.621555188414983E9, 0.0, 2021-05-20 19:59:48.414
39.0, 22595.512580336643, 0.0, 0.0, 0.0, 0.0, 0.0, 0.0, 0.0, 0.014, -0.042, 1.024, 192.0, 0.0, 0.0, 0.0, 0.0, 0.0, 0.0, 0.0, 0.0, 0.0, 1.62155518842291E9, 0.0, 2021-05-20 19:59:48.422
40.0, 22548.193937324755, 0.0, 0.0, 0.0, 0.0, 0.0, 0.0, 0.0, 0.014, -0.042, 1.024, 192.0, 0.0, 0.0, 0.0, 0.0, 0.0, 0.0, 0.0, 0.0, 0.0, 1.621555188422917E9, 0.0, 2021-05-20 19:59:48.422
41.0, 22530.98309409417, 0.0, 0.0, 0.0, 0.0, 0.0, 0.0, 0.0, 0.02, -0.042, 1.022, 192.0, 0.0, 160.0, 254.0, 176.0, 31.0, 240.0, 0.0, 0.0, 0.0, 1.621555188430939E9, 0.0, 2021-05-20 19:59:48.430
42.0, 22588.516484322132, 0.0, 0.0, 0.0, 0.0, 0.0, 0.0, 0.0, 0.02, -0.042, 1.022, 192.0, 0.0, 0.0, 0.0, 0.0, 0.0, 0.0, 0.0, 0.0, 0.0, 1.621555188430947E9, 0.0, 2021-05-20 19:59:48.430
43.0, 22554.966515894714, 0.0, 0.0, 0.0, 0.0, 0.0, 0.0, 0.0, 0.02, -0.042, 1.022, 192.0, 0.0, 0.0, 0.0, 0.0, 0.0, 0.0, 0.0, 0.0, 0.0, 1.621555188437954E9, 0.0, 2021-05-20 19:59:48.437
44.0, 22514.934541575258, 0.0, 0.0, 0.0, 0.0, 0.0, 0.0, 0.0, 0.02, -0.042, 1.022, 192.0, 0.0, 0.0, 0.0, 0.0, 0.0, 0.0, 0.0, 0.0, 0.0, 1.621555188437963E9, 0.0, 2021-05-20 19:59:48.437
45.0, 22512.811125852004, 0.0, 0.0, 0.0, 0.0, 0.0, 0.0, 0.0, 0.02, -0.042, 1.022, 192.0, 0.0, 0.0, 0.0, 0.0, 0.0, 0.0, 0.0, 0.0, 0.0, 1.621555188445576E9, 0.0, 2021-05-20 19:59:48.445
46.0, 22531.40777723882, 0.0, 0.0, 0.0, 0.0, 0.0, 0.0, 0.0, 0.02, -0.042, 1.022, 192.0, 0.0, 0.0, 0.0, 0.0, 0.0, 0.0, 0.0, 0.0, 0.0, 1.621555188445585E9, 0.0, 2021-05-20 19:59:48.445
47.0, 22479.797599291516, 0.0, 0.0, 0.0, 0.0, 0.0, 0.0, 0.0, 0.02, -0.042, 1.022, 192.0, 0.0, 0.0, 0.0, 0.0, 0.0, 0.0, 0.0, 0.0, 0.0, 1.621555188453977E9, 0.0, 2021-05-20 19:59:48.453
48.0, 22443.565421529463, 0.0, 0.0, 0.0, 0.0, 0.0, 0.0, 0.0, 0.02, -0.042, 1.022, 192.0, 0.0, 0.0, 0.0, 0.0, 0.0, 0.0, 0.0, 0.0, 0.0, 1.621555188460618E9, 0.0, 2021-05-20 19:59:48.460
49.0, 22446.649962264295, 0.0, 0.0, 0.0, 0.0, 0.0, 0.0, 0.0, 0.02, -0.042, 1.022, 192.0, 0.0, 0.0, 0.0, 0.0, 0.0, 0.0, 0.0, 0.0, 0.0, 1.621555188460625E9, 0.0, 2021-05-20 19:59:48.460
50.0, 22383.506284178053, 0.0, 0.0, 0.0, 0.0, 0.0, 0.0, 0.0, 0.02, -0.042, 1.022, 192.0, 0.0, 0.0, 0.0, 0.0, 0.0, 0.0, 0.0, 0.0, 0.0, 1.621555188467589E9, 0.0, 2021-05-20 19:59:48.467
51.0, 22356.639487342774, 0.0, 0.0, 0.0, 0.0, 0.0, 0.0, 0.0, 0.02, -0.044, 1.02, 192.0, 0.0, 160.0, 254.0, 160.0, 31.0, 224.0, 0.0, 0.0, 0.0, 1.621555188467596E9, 0.0, 2021-05-20 19:59:48.467
52.0, 22398.10197330737, 0.0, 0.0, 0.0, 0.0, 0.0, 0.0, 0.0, 0.02, -0.044, 1.02, 192.0, 0.0, 0.0, 0.0, 0.0, 0.0, 0.0, 0.0, 0.0, 0.0, 1.621555188475138E9, 0.0, 2021-05-20 19:59:48.475
53.0, 22424.298217808988, 0.0, 0.0, 0.0, 0.0, 0.0, 0.0, 0.0, 0.02, -0.044, 1.02, 192.0, 0.0, 0.0, 0.0, 0.0, 0.0, 0.0, 0.0, 0.0, 0.0, 1.621555188475145E9, 0.0, 2021-05-20 19:59:48.475
54.0, 22416.76567992755, 0.0, 0.0, 0.0, 0.0, 0.0, 0.0, 0.0, 0.02, -0.044, 1.02, 192.0, 0.0, 0.0, 0.0, 0.0, 0.0, 0.0, 0.0, 0.0, 0.0, 1.621555188483092E9, 0.0, 2021-05-20 19:59:48.483
55.0, 22388.557778424954, 0.0, 0.0, 0.0, 0.0, 0.0, 0.0, 0.0, 0.02, -0.044, 1.02, 192.0, 0.0, 0.0, 0.0, 0.0, 0.0, 0.0, 0.0, 0.0, 0.0, 1.6215551884831E9, 0.0, 2021-05-20 19:59:48.483
56.0, 22370.877548560806, 0.0, 0.0, 0.0, 0.0, 0.0, 0.0, 0.0, 0.02, -0.044, 1.02, 192.0, 0.0, 0.0, 0.0, 0.0, 0.0, 0.0, 0.0, 0.0, 0.0, 1.621555188491118E9, 0.0, 2021-05-20 19:59:48.491
57.0, 22334.734777776575, 0.0, 0.0, 0.0, 0.0, 0.0, 0.0, 0.0, 0.02, -0.044, 1.02, 192.0, 0.0, 0.0, 0.0, 0.0, 0.0, 0.0, 0.0, 0.0, 0.0, 1.621555188491126E9, 0.0, 2021-05-20 19:59:48.491
58.0, 22356.19245245367, 0.0, 0.0, 0.0, 0.0, 0.0, 0.0, 0.0, 0.02, -0.044, 1.02, 192.0, 0.0, 0.0, 0.0, 0.0, 0.0, 0.0, 0.0, 0.0, 0.0, 1.621555188497861E9, 0.0, 2021-05-20 19:59:48.497
59.0, 22403.24287453209, 0.0, 0.0, 0.0, 0.0, 0.0, 0.0, 0.0, 0.02, -0.044, 1.02, 192.0, 0.0, 0.0, 0.0, 0.0, 0.0, 0.0, 0.0, 0.0, 0.0, 1.621555188497869E9, 0.0, 2021-05-20 19:59:48.497
60.0, 22350.939792506673, 0.0, 0.0, 0.0, 0.0, 0.0, 0.0, 0.0, 0.02, -0.044, 1.02, 192.0, 0.0, 0.0, 0.0, 0.0, 0.0, 0.0, 0.0, 0.0, 0.0, 1.621555188505898E9, 0.0, 2021-05-20 19:59:48.505
61.0, 22350.6268680843, 0.0, 0.0, 0.0, 0.0, 0.0, 0.0, 0.0, 0.02, -0.042, 1.018, 192.0, 0.0, 160.0, 254.0, 176.0, 31.0, 208.0, 0.0, 0.0, 0.0, 1.621555188505906E9, 0.0, 2021-05-20 19:59:48.505
62.0, 22421.30308405198, 0.0, 0.0, 0.0, 0.0, 0.0, 0.0, 0.0, 0.02, -0.042, 1.018, 192.0, 0.0, 0.0, 0.0, 0.0, 0.0, 0.0, 0.0, 0.0, 0.0, 1.62155518851281E9, 0.0, 2021-05-20 19:59:48.512
63.0, 22417.503287494575, 0.0, 0.0, 0.0, 0.0, 0.0, 0.0, 0.0, 0.02, -0.042, 1.018, 192.0, 0.0, 0.0, 0.0, 0.0, 0.0, 0.0, 0.0, 0.0, 0.0, 1.621555188520954E9, 0.0, 2021-05-20 19:59:48.520
64.0, 22348.61521108332, 0.0, 0.0, 0.0, 0.0, 0.0, 0.0, 0.0, 0.02, -0.042, 1.018, 192.0, 0.0, 0.0, 0.0, 0.0, 0.0, 0.0, 0.0, 0.0, 0.0, 1.621555188520963E9, 0.0, 2021-05-20 19:59:48.520
65.0, 22297.69793721413, 0.0, 0.0, 0.0, 0.0, 0.0, 0.0, 0.0, 0.02, -0.042, 1.018, 192.0, 0.0, 0.0, 0.0, 0.0, 0.0, 0.0, 0.0, 0.0, 0.0, 1.621555188527393E9, 0.0, 2021-05-20 19:59:48.527
66.0, 22323.447146826646, 0.0, 0.0, 0.0, 0.0, 0.0, 0.0, 0.0, 0.02, -0.042, 1.018, 192.0, 0.0, 0.0, 0.0, 0.0, 0.0, 0.0, 0.0, 0.0, 0.0, 1.6215551885274E9, 0.0, 2021-05-20 19:59:48.527
67.0, 22435.071758636448, 0.0, 0.0, 0.0, 0.0, 0.0, 0.0, 0.0, 0.02, -0.042, 1.018, 192.0, 0.0, 0.0, 0.0, 0.0, 0.0, 0.0, 0.0, 0.0, 0.0, 1.621555188535504E9, 0.0, 2021-05-20 19:59:48.535
68.0, 22451.030904177536, 0.0, 0.0, 0.0, 0.0, 0.0, 0.0, 0.0, 0.02, -0.042, 1.018, 192.0, 0.0, 0.0, 0.0, 0.0, 0.0, 0.0, 0.0, 0.0, 0.0, 1.621555188535511E9, 0.0, 2021-05-20 19:59:48.535
69.0, 22415.111650837858, 0.0, 0.0, 0.0, 0.0, 0.0, 0.0, 0.0, 0.02, -0.042, 1.018, 192.0, 0.0, 0.0, 0.0, 0.0, 0.0, 0.0, 0.0, 0.0, 0.0, 1.6215551885435E9, 0.0, 2021-05-20 19:59:48.543
70.0, 22408.29436877899, 0.0, 0.0, 0.0, 0.0, 0.0, 0.0, 0.0, 0.01, -0.034, 1.024, 192.0, 0.0, 80.0, 254.0, 240.0, 32.0, 0.0, 0.0, 0.0, 0.0, 1.621555188543507E9, 0.0, 2021-05-20 19:59:48.543
71.0, 22322.396614837246, 0.0, 0.0, 0.0, 0.0, 0.0, 0.0, 0.0, 0.01, -0.034, 1.024, 192.0, 0.0, 0.0, 0.0, 0.0, 0.0, 0.0, 0.0, 0.0, 0.0, 1.62155518855011E9, 0.0, 2021-05-20 19:59:48.550
72.0, 22369.603499126853, 0.0, 0.0, 0.0, 0.0, 0.0, 0.0, 0.0, 0.01, -0.034, 1.024, 192.0, 0.0, 0.0, 0.0, 0.0, 0.0, 0.0, 0.0, 0.0, 0.0, 1.621555188550118E9, 0.0, 2021-05-20 19:59:48.550
73.0, 22341.5744115799, 0.0, 0.0, 0.0, 0.0, 0.0, 0.0, 0.0, 0.01, -0.034, 1.024, 192.0, 0.0, 0.0, 0.0, 0.0, 0.0, 0.0, 0.0, 0.0, 0.0, 1.621555188558177E9, 0.0, 2021-05-20 19:59:48.558
74.0, 22395.352708739367, 0.0, 0.0, 0.0, 0.0, 0.0, 0.0, 0.0, 0.01, -0.034, 1.024, 192.0, 0.0, 0.0, 0.0, 0.0, 0.0, 0.0, 0.0, 0.0, 0.0, 1.621555188558184E9, 0.0, 2021-05-20 19:59:48.558
75.0, 22348.19052793867, 0.0, 0.0, 0.0, 0.0, 0.0, 0.0, 0.0, 0.01, -0.034, 1.024, 192.0, 0.0, 0.0, 0.0, 0.0, 0.0, 0.0, 0.0, 0.0, 0.0, 1.62155518856615E9, 0.0, 2021-05-20 19:59:48.566
76.0, 22338.80279526744, 0.0, 0.0, 0.0, 0.0, 0.0, 0.0, 0.0, 0.01, -0.034, 1.024, 192.0, 0.0, 0.0, 0.0, 0.0, 0.0, 0.0, 0.0, 0.0, 0.0, 1.621555188566158E9, 0.0, 2021-05-20 19:59:48.566
77.0, 22354.85134778635, 0.0, 0.0, 0.0, 0.0, 0.0, 0.0, 0.0, 0.01, -0.034, 1.024, 192.0, 0.0, 0.0, 0.0, 0.0, 0.0, 0.0, 0.0, 0.0, 0.0, 1.621555188573088E9, 0.0, 2021-05-20 19:59:48.573
78.0, 22312.628902510274, 0.0, 0.0, 0.0, 0.0, 0.0, 0.0, 0.0, 0.01, -0.034, 1.024, 192.0, 0.0, 0.0, 0.0, 0.0, 0.0, 0.0, 0.0, 0.0, 0.0, 1.621555188579815E9, 0.0, 2021-05-20 19:59:48.579
79.0, 22386.90374933526, 0.0, 0.0, 0.0, 0.0, 0.0, 0.0, 0.0, 0.01, -0.034, 1.024, 192.0, 0.0, 0.0, 0.0, 0.0, 0.0, 0.0, 0.0, 0.0, 0.0, 1.621555188579822E9, 0.0, 2021-05-20 19:59:48.579
80.0, 22412.071813591938, 0.0, 0.0, 0.0, 0.0, 0.0, 0.0, 0.0, 0.018000000000000002, -0.036000000000000004, 1.024, 192.0, 0.0, 144.0, 254.0, 224.0, 32.0, 0.0, 0.0, 0.0, 0.0, 1.62155518858784E9, 0.0, 2021-05-20 19:59:48.587
81.0, 22368.195339226168, 0.0, 0.0, 0.0, 0.0, 0.0, 0.0, 0.0, 0.018000000000000002, -0.036000000000000004, 1.024, 192.0, 0.0, 0.0, 0.0, 0.0, 0.0, 0.0, 0.0, 0.0, 0.0, 1.621555188587847E9, 0.0, 2021-05-20 19:59:48.587
82.0, 22348.458748872134, 0.0, 0.0, 0.0, 0.0, 0.0, 0.0, 0.0, 0.018000000000000002, -0.036000000000000004, 1.024, 192.0, 0.0, 0.0, 0.0, 0.0, 0.0, 0.0, 0.0, 0.0, 0.0, 1.621555188595842E9, 0.0, 2021-05-20 19:59:48.595
83.0, 22382.589862655386, 0.0, 0.0, 0.0, 0.0, 0.0, 0.0, 0.0, 0.018000000000000002, -0.036000000000000004, 1.024, 192.0, 0.0, 0.0, 0.0, 0.0, 0.0, 0.0, 0.0, 0.0, 0.0, 1.62155518859585E9, 0.0, 2021-05-20 19:59:48.595
84.0, 22398.70547040766, 0.0, 0.0, 0.0, 0.0, 0.0, 0.0, 0.0, 0.018000000000000002, -0.036000000000000004, 1.024, 192.0, 0.0, 0.0, 0.0, 0.0, 0.0, 0.0, 0.0, 0.0, 0.0, 1.621555188602965E9, 0.0, 2021-05-20 19:59:48.602
85.0, 22407.936740867706, 0.0, 0.0, 0.0, 0.0, 0.0, 0.0, 0.0, 0.018000000000000002, -0.036000000000000004, 1.024, 192.0, 0.0, 0.0, 0.0, 0.0, 0.0, 0.0, 0.0, 0.0, 0.0, 1.621555188602975E9, 0.0, 2021-05-20 19:59:48.602
86.0, 22325.95054220564, 0.0, 0.0, 0.0, 0.0, 0.0, 0.0, 0.0, 0.018000000000000002, -0.036000000000000004, 1.024, 192.0, 0.0, 0.0, 0.0, 0.0, 0.0, 0.0, 0.0, 0.0, 0.0, 1.621555188610398E9, 0.0, 2021-05-20 19:59:48.610
87.0, 22299.195504092637, 0.0, 0.0, 0.0, 0.0, 0.0, 0.0, 0.0, 0.018000000000000002, -0.036000000000000004, 1.024, 192.0, 0.0, 0.0, 0.0, 0.0, 0.0, 0.0, 0.0, 0.0, 0.0, 1.621555188610405E9, 0.0, 2021-05-20 19:59:48.610
88.0, 22401.99117684259, 0.0, 0.0, 0.0, 0.0, 0.0, 0.0, 0.0, 0.018000000000000002, -0.036000000000000004, 1.024, 192.0, 0.0, 0.0, 0.0, 0.0, 0.0, 0.0, 0.0, 0.0, 0.0, 1.62155518861843E9, 0.0, 2021-05-20 19:59:48.618
89.0, 22388.535426680497, 0.0, 0.0, 0.0, 0.0, 0.0, 0.0, 0.0, 0.018000000000000002, -0.036000000000000004, 1.024, 192.0, 0.0, 0.0, 0.0, 0.0, 0.0, 0.0, 0.0, 0.0, 0.0, 1.621555188618437E9, 0.0, 2021-05-20 19:59:48.618
90.0, 22326.151707905738, 0.0, 0.0, 0.0, 0.0, 0.0, 0.0, 0.0, 0.022, -0.044, 1.026, 192.0, 0.0, 176.0, 254.0, 160.0, 32.0, 16.0, 0.0, 0.0, 0.0, 1.62155518862644E9, 0.0, 2021-05-20 19:59:48.626
91.0, 22364.350839179857, 0.0, 0.0, 0.0, 0.0, 0.0, 0.0, 0.0, 0.022, -0.044, 1.026, 192.0, 0.0, 0.0, 0.0, 0.0, 0.0, 0.0, 0.0, 0.0, 0.0, 1.621555188626447E9, 0.0, 2021-05-20 19:59:48.626
92.0, 22525.663378913807, 0.0, 0.0, 0.0, 0.0, 0.0, 0.0, 0.0, 0.022, -0.044, 1.026, 192.0, 0.0, 0.0, 0.0, 0.0, 0.0, 0.0, 0.0, 0.0, 0.0, 1.621555188632523E9, 0.0, 2021-05-20 19:59:48.632
93.0, 22408.987272857103, 0.0, 0.0, 0.0, 0.0, 0.0, 0.0, 0.0, 0.022, -0.044, 1.026, 192.0, 0.0, 0.0, 0.0, 0.0, 0.0, 0.0, 0.0, 0.0, 0.0, 1.62155518863253E9, 0.0, 2021-05-20 19:59:48.632
94.0, 22234.576610872344, 0.0, 0.0, 0.0, 0.0, 0.0, 0.0, 0.0, 0.022, -0.044, 1.026, 192.0, 0.0, 0.0, 0.0, 0.0, 0.0, 0.0, 0.0, 0.0, 0.0, 1.621555188640095E9, 0.0, 2021-05-20 19:59:48.640
95.0, 22301.005995393516, 0.0, 0.0, 0.0, 0.0, 0.0, 0.0, 0.0, 0.022, -0.044, 1.026, 192.0, 0.0, 0.0, 0.0, 0.0, 0.0, 0.0, 0.0, 0.0, 0.0, 1.621555188648125E9, 0.0, 2021-05-20 19:59:48.648
96.0, 22443.364255829365, 0.0, 0.0, 0.0, 0.0, 0.0, 0.0, 0.0, 0.022, -0.044, 1.026, 192.0, 0.0, 0.0, 0.0, 0.0, 0.0, 0.0, 0.0, 0.0, 0.0, 1.621555188648133E9, 0.0, 2021-05-20 19:59:48.648
97.0, 22442.96192442917, 0.0, 0.0, 0.0, 0.0, 0.0, 0.0, 0.0, 0.022, -0.044, 1.026, 192.0, 0.0, 0.0, 0.0, 0.0, 0.0, 0.0, 0.0, 0.0, 0.0, 1.621555188656124E9, 0.0, 2021-05-20 19:59:48.656
98.0, 22403.42168848773, 0.0, 0.0, 0.0, 0.0, 0.0, 0.0, 0.0, 0.022, -0.044, 1.026, 192.0, 0.0, 0.0, 0.0, 0.0, 0.0, 0.0, 0.0, 0.0, 0.0, 1.621555188656131E9, 0.0, 2021-05-20 19:59:48.656
99.0, 22342.04379821346, 0.0, 0.0, 0.0, 0.0, 0.0, 0.0, 0.0, 0.022, -0.044, 1.026, 192.0, 0.0, 0.0, 0.0, 0.0, 0.0, 0.0, 0.0, 0.0, 0.0, 1.621555188662583E9, 0.0, 2021-05-20 19:59:48.662
100.0, 22427.941552155204, 0.0, 0.0, 0.0, 0.0, 0.0, 0.0, 0.0, 0.024, -0.044, 1.024, 192.0, 0.0, 192.0, 254.0, 160.0, 32.0, 0.0, 0.0, 0.0, 0.0, 1.62155518866259E9, 0.0, 2021-05-20 19:59:48.662
101.0, 22461.424465349253, 0.0, 0.0, 0.0, 0.0, 0.0, 0.0, 0.0, 0.024, -0.044, 1.024, 192.0, 0.0, 0.0, 0.0, 0.0, 0.0, 0.0, 0.0, 0.0, 0.0, 1.621555188677628E9, 0.0, 2021-05-20 19:59:48.677
102.0, 22398.683118663208, 0.0, 0.0, 0.0, 0.0, 0.0, 0.0, 0.0, 0.024, -0.044, 1.024, 192.0, 0.0, 0.0, 0.0, 0.0, 0.0, 0.0, 0.0, 0.0, 0.0, 1.621555188677636E9, 0.0, 2021-05-20 19:59:48.677
103.0, 22354.27020243051, 0.0, 0.0, 0.0, 0.0, 0.0, 0.0, 0.0, 0.024, -0.044, 1.024, 192.0, 0.0, 0.0, 0.0, 0.0, 0.0, 0.0, 0.0, 0.0, 0.0, 1.621555188683843E9, 0.0, 2021-05-20 19:59:48.683
104.0, 22414.95518862667, 0.0, 0.0, 0.0, 0.0, 0.0, 0.0, 0.0, 0.024, -0.044, 1.024, 192.0, 0.0, 0.0, 0.0, 0.0, 0.0, 0.0, 0.0, 0.0, 0.0, 1.62155518868385E9, 0.0, 2021-05-20 19:59:48.683
105.0, 22399.621891930332, 0.0, 0.0, 0.0, 0.0, 0.0, 0.0, 0.0, 0.024, -0.044, 1.024, 192.0, 0.0, 0.0, 0.0, 0.0, 0.0, 0.0, 0.0, 0.0, 0.0, 1.621555188690049E9, 0.0, 2021-05-20 19:59:48.690
106.0, 22326.442280583655, 0.0, 0.0, 0.0, 0.0, 0.0, 0.0, 0.0, 0.024, -0.044, 1.024, 192.0, 0.0, 0.0, 0.0, 0.0, 0.0, 0.0, 0.0, 0.0, 0.0, 1.621555188690062E9, 0.0, 2021-05-20 19:59:48.690
107.0, 22279.436561994145, 0.0, 0.0, 0.0, 0.0, 0.0, 0.0, 0.0, 0.024, -0.044, 1.024, 192.0, 0.0, 0.0, 0.0, 0.0, 0.0, 0.0, 0.0, 0.0, 0.0, 1.621555188696196E9, 0.0, 2021-05-20 19:59:48.696
108.0, 22363.166196723723, 0.0, 0.0, 0.0, 0.0, 0.0, 0.0, 0.0, 0.024, -0.044, 1.024, 192.0, 0.0, 0.0, 0.0, 0.0, 0.0, 0.0, 0.0, 0.0, 0.0, 1.621555188696204E9, 0.0, 2021-05-20 19:59:48.696
109.0, 22404.159296054757, 0.0, 0.0, 0.0, 0.0, 0.0, 0.0, 0.0, 0.024, -0.044, 1.024, 192.0, 0.0, 0.0, 0.0, 0.0, 0.0, 0.0, 0.0, 0.0, 0.0, 1.621555188702691E9, 0.0, 2021-05-20 19:59:48.702
110.0, 22340.70269354614, 0.0, 0.0, 0.0, 0.0, 0.0, 0.0, 0.0, 0.02, -0.04, 1.02, 192.0, 0.0, 160.0, 254.0, 192.0, 31.0, 224.0, 0.0, 0.0, 0.0, 1.621555188708456E9, 0.0, 2021-05-20 19:59:48.708
111.0, 22327.626923039785, 0.0, 0.0, 0.0, 0.0, 0.0, 0.0, 0.0, 0.02, -0.04, 1.02, 192.0, 0.0, 0.0, 0.0, 0.0, 0.0, 0.0, 0.0, 0.0, 0.0, 1.621555188708464E9, 0.0, 2021-05-20 19:59:48.708
112.0, 22292.46762901159, 0.0, 0.0, 0.0, 0.0, 0.0, 0.0, 0.0, 0.02, -0.04, 1.02, 192.0, 0.0, 0.0, 0.0, 0.0, 0.0, 0.0, 0.0, 0.0, 0.0, 1.621555188714915E9, 0.0, 2021-05-20 19:59:48.714
113.0, 22359.545214121965, 0.0, 0.0, 0.0, 0.0, 0.0, 0.0, 0.0, 0.02, -0.04, 1.02, 192.0, 0.0, 0.0, 0.0, 0.0, 0.0, 0.0, 0.0, 0.0, 0.0, 1.621555188714922E9, 0.0, 2021-05-20 19:59:48.714
114.0, 22314.46174555561, 0.0, 0.0, 0.0, 0.0, 0.0, 0.0, 0.0, 0.02, -0.04, 1.02, 192.0, 0.0, 0.0, 0.0, 0.0, 0.0, 0.0, 0.0, 0.0, 0.0, 1.621555188722952E9, 0.0, 2021-05-20 19:59:48.722
115.0, 22340.590934823864, 0.0, 0.0, 0.0, 0.0, 0.0, 0.0, 0.0, 0.02, -0.04, 1.02, 192.0, 0.0, 0.0, 0.0, 0.0, 0.0, 0.0, 0.0, 0.0, 0.0, 1.621555188722959E9, 0.0, 2021-05-20 19:59:48.722
116.0, 22307.80092570793, 0.0, 0.0, 0.0, 0.0, 0.0, 0.0, 0.0, 0.02, -0.04, 1.02, 192.0, 0.0, 0.0, 0.0, 0.0, 0.0, 0.0, 0.0, 0.0, 0.0, 1.621555188730936E9, 0.0, 2021-05-20 19:59:48.730
117.0, 22337.931077233683, 0.0, 0.0, 0.0, 0.0, 0.0, 0.0, 0.0, 0.02, -0.04, 1.02, 192.0, 0.0, 0.0, 0.0, 0.0, 0.0, 0.0, 0.0, 0.0, 0.0, 1.621555188730944E9, 0.0, 2021-05-20 19:59:48.730
118.0, 22359.81343505543, 0.0, 0.0, 0.0, 0.0, 0.0, 0.0, 0.0, 0.02, -0.04, 1.02, 192.0, 0.0, 0.0, 0.0, 0.0, 0.0, 0.0, 0.0, 0.0, 0.0, 1.62155518873838E9, 0.0, 2021-05-20 19:59:48.738
119.0, 22264.818521120374, 0.0, 0.0, 0.0, 0.0, 0.0, 0.0, 0.0, 0.02, -0.04, 1.02, 192.0, 0.0, 0.0, 0.0, 0.0, 0.0, 0.0, 0.0, 0.0, 0.0, 1.621555188738389E9, 0.0, 2021-05-20 19:59:48.738
120.0, 22262.136311785736, 0.0, 0.0, 0.0, 0.0, 0.0, 0.0, 0.0, 0.014, -0.038, 1.02, 192.0, 0.0, 112.0, 254.0, 208.0, 31.0, 224.0, 0.0, 0.0, 0.0, 1.62155518874557E9, 0.0, 2021-05-20 19:59:48.745
121.0, 22349.822205283905, 0.0, 0.0, 0.0, 0.0, 0.0, 0.0, 0.0, 0.014, -0.038, 1.02, 192.0, 0.0, 0.0, 0.0, 0.0, 0.0, 0.0, 0.0, 0.0, 0.0, 1.621555188745577E9, 0.0, 2021-05-20 19:59:48.745
122.0, 22387.127266779815, 0.0, 0.0, 0.0, 0.0, 0.0, 0.0, 0.0, 0.014, -0.038, 1.02, 192.0, 0.0, 0.0, 0.0, 0.0, 0.0, 0.0, 0.0, 0.0, 0.0, 1.621555188755009E9, 0.0, 2021-05-20 19:59:48.755
123.0, 22349.911612261727, 0.0, 0.0, 0.0, 0.0, 0.0, 0.0, 0.0, 0.014, -0.038, 1.02, 192.0, 0.0, 0.0, 0.0, 0.0, 0.0, 0.0, 0.0, 0.0, 0.0, 1.621555188755025E9, 0.0, 2021-05-20 19:59:48.755
124.0, 22332.477251586588, 0.0, 0.0, 0.0, 0.0, 0.0, 0.0, 0.0, 0.014, -0.038, 1.02, 192.0, 0.0, 0.0, 0.0, 0.0, 0.0, 0.0, 0.0, 0.0, 0.0, 1.621555188761131E9, 0.0, 2021-05-20 19:59:48.761
125.0, 22409.546066468487, 0.0, 0.0, 0.0, 0.0, 0.0, 0.0, 0.0, 0.014, -0.038, 1.02, 192.0, 0.0, 0.0, 0.0, 0.0, 0.0, 0.0, 0.0, 0.0, 0.0, 1.621555188767746E9, 0.0, 2021-05-20 19:59:48.767
126.0, 22456.976468202647, 0.0, 0.0, 0.0, 0.0, 0.0, 0.0, 0.0, 0.014, -0.038, 1.02, 192.0, 0.0, 0.0, 0.0, 0.0, 0.0, 0.0, 0.0, 0.0, 0.0, 1.621555188767753E9, 0.0, 2021-05-20 19:59:48.767
127.0, 22310.773707720484, 0.0, 0.0, 0.0, 0.0, 0.0, 0.0, 0.0, 0.014, -0.038, 1.02, 192.0, 0.0, 0.0, 0.0, 0.0, 0.0, 0.0, 0.0, 0.0, 0.0, 1.621555188775243E9, 0.0, 2021-05-20 19:59:48.775
128.0, 22482.479808626154, 0.0, 0.0, 0.0, 0.0, 0.0, 0.0, 0.0, 0.014, -0.038, 1.02, 192.0, 0.0, 0.0, 0.0, 0.0, 0.0, 0.0, 0.0, 0.0, 0.0, 1.621555188775251E9, 0.0, 2021-05-20 19:59:48.775
129.0, 22771.621974900005, 0.0, 0.0, 0.0, 0.0, 0.0, 0.0, 0.0, 0.014, -0.038, 1.02, 192.0, 0.0, 0.0, 0.0, 0.0, 0.0, 0.0, 0.0, 0.0, 0.0, 1.62155518878601E9, 0.0, 2021-05-20 19:59:48.786
130.0, 22651.079017052536, 0.0, 0.0, 0.0, 0.0, 0.0, 0.0, 0.0, 0.014, -0.034, 1.016, 192.0, 0.0, 112.0, 254.0, 240.0, 31.0, 192.0, 0.0, 0.0, 0.0, 1.621555188786019E9, 0.0, 2021-05-20 19:59:48.786
131.0, 22560.956783408736, 0.0, 0.0, 0.0, 0.0, 0.0, 0.0, 0.0, 0.014, -0.034, 1.016, 192.0, 0.0, 0.0, 0.0, 0.0, 0.0, 0.0, 0.0, 0.0, 0.0, 1.621555188794143E9, 0.0, 2021-05-20 19:59:48.794
132.0, 22665.49589222621, 0.0, 0.0, 0.0, 0.0, 0.0, 0.0, 0.0, 0.014, -0.034, 1.016, 192.0, 0.0, 0.0, 0.0, 0.0, 0.0, 0.0, 0.0, 0.0, 0.0, 1.621555188794153E9, 0.0, 2021-05-20 19:59:48.794
133.0, 22810.245789318775, 0.0, 0.0, 0.0, 0.0, 0.0, 0.0, 0.0, 0.014, -0.034, 1.016, 192.0, 0.0, 0.0, 0.0, 0.0, 0.0, 0.0, 0.0, 0.0, 0.0, 1.621555188800193E9, 0.0, 2021-05-20 19:59:48.800
134.0, 22632.214144732257, 0.0, 0.0, 0.0, 0.0, 0.0, 0.0, 0.0, 0.014, -0.034, 1.016, 192.0, 0.0, 0.0, 0.0, 0.0, 0.0, 0.0, 0.0, 0.0, 0.0, 1.6215551888002E9, 0.0, 2021-05-20 19:59:48.800
135.0, 22306.59393150734, 0.0, 0.0, 0.0, 0.0, 0.0, 0.0, 0.0, 0.014, -0.034, 1.016, 192.0, 0.0, 0.0, 0.0, 0.0, 0.0, 0.0, 0.0, 0.0, 0.0, 1.621555188806382E9, 0.0, 2021-05-20 19:59:48.806
136.0, 22256.54837567191, 0.0, 0.0, 0.0, 0.0, 0.0, 0.0, 0.0, 0.014, -0.034, 1.016, 192.0, 0.0, 0.0, 0.0, 0.0, 0.0, 0.0, 0.0, 0.0, 0.0, 1.62155518880639E9, 0.0, 2021-05-20 19:59:48.806
137.0, 22383.193359755678, 0.0, 0.0, 0.0, 0.0, 0.0, 0.0, 0.0, 0.014, -0.034, 1.016, 192.0, 0.0, 0.0, 0.0, 0.0, 0.0, 0.0, 0.0, 0.0, 0.0, 1.621555188813832E9, 0.0, 2021-05-20 19:59:48.813
138.0, 22402.61702568734, 0.0, 0.0, 0.0, 0.0, 0.0, 0.0, 0.0, 0.014, -0.034, 1.016, 192.0, 0.0, 0.0, 0.0, 0.0, 0.0, 0.0, 0.0, 0.0, 0.0, 1.62155518881384E9, 0.0, 2021-05-20 19:59:48.813
139.0, 22238.421110918654, 0.0, 0.0, 0.0, 0.0, 0.0, 0.0, 0.0, 0.018000000000000002, -0.042, 1.02, 192.0, 0.0, 144.0, 254.0, 176.0, 31.0, 224.0, 0.0, 0.0, 0.0, 1.621555188821015E9, 0.0, 2021-05-20 19:59:48.821
140.0, 22209.83322976032, 0.0, 0.0, 0.0, 0.0, 0.0, 0.0, 0.0, 0.018000000000000002, -0.042, 1.02, 192.0, 0.0, 0.0, 0.0, 0.0, 0.0, 0.0, 0.0, 0.0, 0.0, 1.621555188828831E9, 0.0, 2021-05-20 19:59:48.828
141.0, 22406.550932711474, 0.0, 0.0, 0.0, 0.0, 0.0, 0.0, 0.0, 0.018000000000000002, -0.042, 1.02, 192.0, 0.0, 0.0, 0.0, 0.0, 0.0, 0.0, 0.0, 0.0, 0.0, 1.621555188828841E9, 0.0, 2021-05-20 19:59:48.828
142.0, 22477.540073101532, 0.0, 0.0, 0.0, 0.0, 0.0, 0.0, 0.0, 0.018000000000000002, -0.042, 1.02, 192.0, 0.0, 0.0, 0.0, 0.0, 0.0, 0.0, 0.0, 0.0, 0.0, 1.62155518883744E9, 0.0, 2021-05-20 19:59:48.837
143.0, 22273.11101831329, 0.0, 0.0, 0.0, 0.0, 0.0, 0.0, 0.0, 0.018000000000000002, -0.042, 1.02, 192.0, 0.0, 0.0, 0.0, 0.0, 0.0, 0.0, 0.0, 0.0, 0.0, 1.62155518883745E9, 0.0, 2021-05-20 19:59:48.837
144.0, 22241.572706886855, 0.0, 0.0, 0.0, 0.0, 0.0, 0.0, 0.0, 0.018000000000000002, -0.042, 1.02, 192.0, 0.0, 0.0, 0.0, 0.0, 0.0, 0.0, 0.0, 0.0, 0.0, 1.621555188844435E9, 0.0, 2021-05-20 19:59:48.844
145.0, 22448.102825653892, 0.0, 0.0, 0.0, 0.0, 0.0, 0.0, 0.0, 0.018000000000000002, -0.042, 1.02, 192.0, 0.0, 0.0, 0.0, 0.0, 0.0, 0.0, 0.0, 0.0, 0.0, 1.621555188844445E9, 0.0, 2021-05-20 19:59:48.844
146.0, 22522.869410856893, 0.0, 0.0, 0.0, 0.0, 0.0, 0.0, 0.0, 0.018000000000000002, -0.042, 1.02, 192.0, 0.0, 0.0, 0.0, 0.0, 0.0, 0.0, 0.0, 0.0, 0.0, 1.621555188850763E9, 0.0, 2021-05-20 19:59:48.850
147.0, 22337.171117922204, 0.0, 0.0, 0.0, 0.0, 0.0, 0.0, 0.0, 0.018000000000000002, -0.042, 1.02, 192.0, 0.0, 0.0, 0.0, 0.0, 0.0, 0.0, 0.0, 0.0, 0.0, 1.621555188850772E9, 0.0, 2021-05-20 19:59:48.850
148.0, 22239.046959763404, 0.0, 0.0, 0.0, 0.0, 0.0, 0.0, 0.0, 0.018000000000000002, -0.042, 1.02, 192.0, 0.0, 0.0, 0.0, 0.0, 0.0, 0.0, 0.0, 0.0, 0.0, 1.621555188860591E9, 0.0, 2021-05-20 19:59:48.860
149.0, 22367.301269447955, 0.0, 0.0, 0.0, 0.0, 0.0, 0.0, 0.0, 0.022, -0.048, 1.018, 192.0, 0.0, 176.0, 254.0, 128.0, 31.0, 208.0, 0.0, 0.0, 0.0, 1.6215551888606E9, 0.0, 2021-05-20 19:59:48.860
150.0, 22575.731286493694, 0.0, 0.0, 0.0, 0.0, 0.0, 0.0, 0.0, 0.022, -0.048, 1.018, 192.0, 0.0, 0.0, 0.0, 0.0, 0.0, 0.0, 0.0, 0.0, 0.0, 1.62155518886606E9, 0.0, 2021-05-20 19:59:48.866
151.0, 22299.307262814913, 0.0, 0.0, 0.0, 0.0, 0.0, 0.0, 0.0, 0.022, -0.048, 1.018, 192.0, 0.0, 0.0, 0.0, 0.0, 0.0, 0.0, 0.0, 0.0, 0.0, 1.621555188866069E9, 0.0, 2021-05-20 19:59:48.866
152.0, 22111.99964427944, 0.0, 0.0, 0.0, 0.0, 0.0, 0.0, 0.0, 0.022, -0.048, 1.018, 192.0, 0.0, 0.0, 0.0, 0.0, 0.0, 0.0, 0.0, 0.0, 0.0, 1.621555188875939E9, 0.0, 2021-05-20 19:59:48.875
153.0, 22309.231437353068, 0.0, 0.0, 0.0, 0.0, 0.0, 0.0, 0.0, 0.022, -0.048, 1.018, 192.0, 0.0, 0.0, 0.0, 0.0, 0.0, 0.0, 0.0, 0.0, 0.0, 1.621555188875948E9, 0.0, 2021-05-20 19:59:48.875
154.0, 22453.064912922968, 0.0, 0.0, 0.0, 0.0, 0.0, 0.0, 0.0, 0.022, -0.048, 1.018, 192.0, 0.0, 0.0, 0.0, 0.0, 0.0, 0.0, 0.0, 0.0, 0.0, 1.621555188880054E9, 0.0, 2021-05-20 19:59:48.880
155.0, 22371.637507872285, 0.0, 0.0, 0.0, 0.0, 0.0, 0.0, 0.0, 0.022, -0.048, 1.018, 192.0, 0.0, 0.0, 0.0, 0.0, 0.0, 0.0, 0.0, 0.0, 0.0, 1.621555188880062E9, 0.0, 2021-05-20 19:59:48.880
156.0, 22204.960549469062, 0.0, 0.0, 0.0, 0.0, 0.0, 0.0, 0.0, 0.022, -0.048, 1.018, 192.0, 0.0, 0.0, 0.0, 0.0, 0.0, 0.0, 0.0, 0.0, 0.0, 1.621555188889281E9, 0.0, 2021-05-20 19:59:48.889
157.0, 22319.155611891227, 0.0, 0.0, 0.0, 0.0, 0.0, 0.0, 0.0, 0.022, -0.048, 1.018, 192.0, 0.0, 0.0, 0.0, 0.0, 0.0, 0.0, 0.0, 0.0, 0.0, 1.621555188896412E9, 0.0, 2021-05-20 19:59:48.896
158.0, 22487.620709850875, 0.0, 0.0, 0.0, 0.0, 0.0, 0.0, 0.0, 0.022, -0.048, 1.018, 192.0, 0.0, 0.0, 0.0, 0.0, 0.0, 0.0, 0.0, 0.0, 0.0, 1.62155518889647E9, 0.0, 2021-05-20 19:59:48.896
159.0, 22444.39243607431, 0.0, 0.0, 0.0, 0.0, 0.0, 0.0, 0.0, 0.022, -0.044, 1.018, 192.0, 0.0, 176.0, 254.0, 160.0, 31.0, 208.0, 0.0, 0.0, 0.0, 1.621555188903048E9, 0.0, 2021-05-20 19:59:48.903
160.0, 22248.814672090375, 0.0, 0.0, 0.0, 0.0, 0.0, 0.0, 0.0, 0.022, -0.044, 1.018, 192.0, 0.0, 0.0, 0.0, 0.0, 0.0, 0.0, 0.0, 0.0, 0.0, 1.621555188903058E9, 0.0, 2021-05-20 19:59:48.903
161.0, 22261.84573910782, 0.0, 0.0, 0.0, 0.0, 0.0, 0.0, 0.0, 0.022, -0.044, 1.018, 192.0, 0.0, 0.0, 0.0, 0.0, 0.0, 0.0, 0.0, 0.0, 0.0, 1.621555188912132E9, 0.0, 2021-05-20 19:59:48.912
162.0, 22503.758669347608, 0.0, 0.0, 0.0, 0.0, 0.0, 0.0, 0.0, 0.022, -0.044, 1.018, 192.0, 0.0, 0.0, 0.0, 0.0, 0.0, 0.0, 0.0, 0.0, 0.0, 1.621555188912143E9, 0.0, 2021-05-20 19:59:48.912
163.0, 22495.443820410233, 0.0, 0.0, 0.0, 0.0, 0.0, 0.0, 0.0, 0.022, -0.044, 1.018, 192.0, 0.0, 0.0, 0.0, 0.0, 0.0, 0.0, 0.0, 0.0, 0.0, 1.621555188918426E9, 0.0, 2021-05-20 19:59:48.918
164.0, 22262.717457141574, 0.0, 0.0, 0.0, 0.0, 0.0, 0.0, 0.0, 0.022, -0.044, 1.018, 192.0, 0.0, 0.0, 0.0, 0.0, 0.0, 0.0, 0.0, 0.0, 0.0, 1.621555188918435E9, 0.0, 2021-05-20 19:59:48.918
165.0, 22236.700026595598, 0.0, 0.0, 0.0, 0.0, 0.0, 0.0, 0.0, 0.022, -0.044, 1.018, 192.0, 0.0, 0.0, 0.0, 0.0, 0.0, 0.0, 0.0, 0.0, 0.0, 1.621555188926427E9, 0.0, 2021-05-20 19:59:48.926
166.0, 22463.905508983793, 0.0, 0.0, 0.0, 0.0, 0.0, 0.0, 0.0, 0.022, -0.044, 1.018, 192.0, 0.0, 0.0, 0.0, 0.0, 0.0, 0.0, 0.0, 0.0, 0.0, 1.621555188926438E9, 0.0, 2021-05-20 19:59:48.926
167.0, 22555.324143806, 0.0, 0.0, 0.0, 0.0, 0.0, 0.0, 0.0, 0.022, -0.044, 1.018, 192.0, 0.0, 0.0, 0.0, 0.0, 0.0, 0.0, 0.0, 0.0, 0.0, 1.621555188934473E9, 0.0, 2021-05-20 19:59:48.934
168.0, 22327.492812573055, 0.0, 0.0, 0.0, 0.0, 0.0, 0.0, 0.0, 0.022, -0.044, 1.018, 192.0, 0.0, 0.0, 0.0, 0.0, 0.0, 0.0, 0.0, 0.0, 0.0, 1.62155518893448E9, 0.0, 2021-05-20 19:59:48.934
169.0, 22321.524896803487, 0.0, 0.0, 0.0, 0.0, 0.0, 0.0, 0.0, 0.024, -0.042, 1.022, 192.0, 0.0, 192.0, 254.0, 176.0, 31.0, 240.0, 0.0, 0.0, 0.0, 1.621555188941046E9, 0.0, 2021-05-20 19:59:48.941
170.0, 22486.033735994548, 0.0, 0.0, 0.0, 0.0, 0.0, 0.0, 0.0, 0.024, -0.042, 1.022, 192.0, 0.0, 0.0, 0.0, 0.0, 0.0, 0.0, 0.0, 0.0, 0.0, 1.621555188941055E9, 0.0, 2021-05-20 19:59:48.941
171.0, 22467.481788096644, 0.0, 0.0, 0.0, 0.0, 0.0, 0.0, 0.0, 0.024, -0.042, 1.022, 192.0, 0.0, 0.0, 0.0, 0.0, 0.0, 0.0, 0.0, 0.0, 0.0, 1.621555188948144E9, 0.0, 2021-05-20 19:59:48.948
172.0, 22296.446239524634, 0.0, 0.0, 0.0, 0.0, 0.0, 0.0, 0.0, 0.024, -0.042, 1.022, 192.0, 0.0, 0.0, 0.0, 0.0, 0.0, 0.0, 0.0, 0.0, 0.0, 1.621555188956205E9, 0.0, 2021-05-20 19:59:48.956
173.0, 22259.856433851295, 0.0, 0.0, 0.0, 0.0, 0.0, 0.0, 0.0, 0.024, -0.042, 1.022, 192.0, 0.0, 0.0, 0.0, 0.0, 0.0, 0.0, 0.0, 0.0, 0.0, 1.621555188956216E9, 0.0, 2021-05-20 19:59:48.956
174.0, 22419.42553751773, 0.0, 0.0, 0.0, 0.0, 0.0, 0.0, 0.0, 0.024, -0.042, 1.022, 192.0, 0.0, 0.0, 0.0, 0.0, 0.0, 0.0, 0.0, 0.0, 0.0, 1.621555188962682E9, 0.0, 2021-05-20 19:59:48.962
175.0, 22549.2221175697, 0.0, 0.0, 0.0, 0.0, 0.0, 0.0, 0.0, 0.024, -0.042, 1.022, 192.0, 0.0, 0.0, 0.0, 0.0, 0.0, 0.0, 0.0, 0.0, 0.0, 1.621555188962691E9, 0.0, 2021-05-20 19:59:48.962
176.0, 22391.687022648697, 0.0, 0.0, 0.0, 0.0, 0.0, 0.0, 0.0, 0.024, -0.042, 1.022, 192.0, 0.0, 0.0, 0.0, 0.0, 0.0, 0.0, 0.0, 0.0, 0.0, 1.621555188970754E9, 0.0, 2021-05-20 19:59:48.970
177.0, 22196.91392146515, 0.0, 0.0, 0.0, 0.0, 0.0, 0.0, 0.0, 0.024, -0.042, 1.022, 192.0, 0.0, 0.0, 0.0, 0.0, 0.0, 0.0, 0.0, 0.0, 0.0, 1.621555188970767E9, 0.0, 2021-05-20 19:59:48.970
178.0, 22371.637507872285, 0.0, 0.0, 0.0, 0.0, 0.0, 0.0, 0.0, 0.024, -0.042, 1.022, 192.0, 0.0, 0.0, 0.0, 0.0, 0.0, 0.0, 0.0, 0.0, 0.0, 1.621555188978707E9, 0.0, 2021-05-20 19:59:48.978
179.0, 22573.317298092523, 0.0, 0.0, 0.0, 0.0, 0.0, 0.0, 0.0, 0.022, -0.038, 1.024, 192.0, 0.0, 176.0, 254.0, 208.0, 32.0, 0.0, 0.0, 0.0, 0.0, 1.621555188978714E9, 0.0, 2021-05-20 19:59:48.978
180.0, 22494.326233187465, 0.0, 0.0, 0.0, 0.0, 0.0, 0.0, 0.0, 0.022, -0.038, 1.024, 192.0, 0.0, 0.0, 0.0, 0.0, 0.0, 0.0, 0.0, 0.0, 0.0, 1.62155518898574E9, 0.0, 2021-05-20 19:59:48.985
181.0, 22342.51318484702, 0.0, 0.0, 0.0, 0.0, 0.0, 0.0, 0.0, 0.022, -0.038, 1.024, 192.0, 0.0, 0.0, 0.0, 0.0, 0.0, 0.0, 0.0, 0.0, 0.0, 1.621555188985753E9, 0.0, 2021-05-20 19:59:48.985
182.0, 22426.15341259878, 0.0, 0.0, 0.0, 0.0, 0.0, 0.0, 0.0, 0.022, -0.038, 1.024, 192.0, 0.0, 0.0, 0.0, 0.0, 0.0, 0.0, 0.0, 0.0, 0.0, 1.621555188993444E9, 0.0, 2021-05-20 19:59:48.993
183.0, 22613.28221717861, 0.0, 0.0, 0.0, 0.0, 0.0, 0.0, 0.0, 0.022, -0.038, 1.024, 192.0, 0.0, 0.0, 0.0, 0.0, 0.0, 0.0, 0.0, 0.0, 0.0, 1.621555188993452E9, 0.0, 2021-05-20 19:59:48.993
184.0, 22567.21527185622, 0.0, 0.0, 0.0, 0.0, 0.0, 0.0, 0.0, 0.022, -0.038, 1.024, 192.0, 0.0, 0.0, 0.0, 0.0, 0.0, 0.0, 0.0, 0.0, 0.0, 1.621555189001857E9, 0.0, 2021-05-20 19:59:49.001
185.0, 22371.57045263892, 0.0, 0.0, 0.0, 0.0, 0.0, 0.0, 0.0, 0.022, -0.038, 1.024, 192.0, 0.0, 0.0, 0.0, 0.0, 0.0, 0.0, 0.0, 0.0, 0.0, 1.621555189001864E9, 0.0, 2021-05-20 19:59:49.001
186.0, 22404.583979199408, 0.0, 0.0, 0.0, 0.0, 0.0, 0.0, 0.0, 0.022, -0.038, 1.024, 192.0, 0.0, 0.0, 0.0, 0.0, 0.0, 0.0, 0.0, 0.0, 0.0, 1.621555189008418E9, 0.0, 2021-05-20 19:59:49.008
187.0, 22608.834220032004, 0.0, 0.0, 0.0, 0.0, 0.0, 0.0, 0.0, 0.022, -0.038, 1.024, 192.0, 0.0, 0.0, 0.0, 0.0, 0.0, 0.0, 0.0, 0.0, 0.0, 1.621555189016287E9, 0.0, 2021-05-20 19:59:49.016
188.0, 22613.10340322297, 0.0, 0.0, 0.0, 0.0, 0.0, 0.0, 0.0, 0.022, -0.038, 1.024, 192.0, 0.0, 0.0, 0.0, 0.0, 0.0, 0.0, 0.0, 0.0, 0.0, 1.621555189016295E9, 0.0, 2021-05-20 19:59:49.016
189.0, 22430.15437485628, 0.0, 0.0, 0.0, 0.0, 0.0, 0.0, 0.0, 0.022, -0.038, 1.024, 192.0, 0.0, 176.0, 254.0, 208.0, 32.0, 0.0, 0.0, 0.0, 0.0, 1.621555189023063E9, 0.0, 2021-05-20 19:59:49.023
190.0, 22392.424630215723, 0.0, 0.0, 0.0, 0.0, 0.0, 0.0, 0.0, 0.022, -0.038, 1.024, 192.0, 0.0, 0.0, 0.0, 0.0, 0.0, 0.0, 0.0, 0.0, 0.0, 1.621555189023077E9, 0.0, 2021-05-20 19:59:49.023
191.0, 22626.134470240413, 0.0, 0.0, 0.0, 0.0, 0.0, 0.0, 0.0, 0.022, -0.038, 1.024, 192.0, 0.0, 0.0, 0.0, 0.0, 0.0, 0.0, 0.0, 0.0, 0.0, 1.62155518903097E9, 0.0, 2021-05-20 19:59:49.030
192.0, 22704.253817111712, 0.0, 0.0, 0.0, 0.0, 0.0, 0.0, 0.0, 0.022, -0.038, 1.024, 192.0, 0.0, 0.0, 0.0, 0.0, 0.0, 0.0, 0.0, 0.0, 0.0, 1.621555189030979E9, 0.0, 2021-05-20 19:59:49.030
193.0, 22415.24576130459, 0.0, 0.0, 0.0, 0.0, 0.0, 0.0, 0.0, 0.022, -0.038, 1.024, 192.0, 0.0, 0.0, 0.0, 0.0, 0.0, 0.0, 0.0, 0.0, 0.0, 1.621555189039721E9, 0.0, 2021-05-20 19:59:49.039
194.0, 22331.94080971966, 0.0, 0.0, 0.0, 0.0, 0.0, 0.0, 0.0, 0.022, -0.038, 1.024, 192.0, 0.0, 0.0, 0.0, 0.0, 0.0, 0.0, 0.0, 0.0, 0.0, 1.621555189039741E9, 0.0, 2021-05-20 19:59:49.039
195.0, 22519.583704421962, 0.0, 0.0, 0.0, 0.0, 0.0, 0.0, 0.0, 0.022, -0.038, 1.024, 192.0, 0.0, 0.0, 0.0, 0.0, 0.0, 0.0, 0.0, 0.0, 0.0, 1.621555189045733E9, 0.0, 2021-05-20 19:59:49.045
196.0, 22624.413385917353, 0.0, 0.0, 0.0, 0.0, 0.0, 0.0, 0.0, 0.022, -0.038, 1.024, 192.0, 0.0, 0.0, 0.0, 0.0, 0.0, 0.0, 0.0, 0.0, 0.0, 1.621555189045742E9, 0.0, 2021-05-20 19:59:49.045
197.0, 22434.892944680803, 0.0, 0.0, 0.0, 0.0, 0.0, 0.0, 0.0, 0.022, -0.038, 1.024, 192.0, 0.0, 0.0, 0.0, 0.0, 0.0, 0.0, 0.0, 0.0, 0.0, 1.621555189053669E9, 0.0, 2021-05-20 19:59:49.053
198.0, 22356.39361815377, 0.0, 0.0, 0.0, 0.0, 0.0, 0.0, 0.0, 0.022, -0.038, 1.024, 192.0, 0.0, 0.0, 0.0, 0.0, 0.0, 0.0, 0.0, 0.0, 0.0, 1.621555189053681E9, 0.0, 2021-05-20 19:59:49.053
199.0, 22390.05534530346, 0.0, 0.0, 0.0, 0.0, 0.0, 0.0, 0.0, 0.022, -0.042, 1.02, 192.0, 0.0, 176.0, 254.0, 176.0, 31.0, 224.0, 0.0, 0.0, 0.0, 1.621555189061587E9, 0.0, 2021-05-20 19:59:49.061
200.0, 22503.98218679216, 0.0, 0.0, 0.0, 0.0, 0.0, 0.0, 0.0, 0.022, -0.042, 1.02, 192.0, 0.0, 0.0, 0.0, 0.0, 0.0, 0.0, 0.0, 0.0, 0.0, 1.621555189061597E9, 0.0, 2021-05-20 19:59:49.061
201.0, 22407.601464700874, 0.0, 0.0, 0.0, 0.0, 0.0, 0.0, 0.0, 0.022, -0.042, 1.02, 192.0, 0.0, 0.0, 0.0, 0.0, 0.0, 0.0, 0.0, 0.0, 0.0, 1.621555189067781E9, 0.0, 2021-05-20 19:59:49.067
202.0, 22201.272511633935, 0.0, 0.0, 0.0, 0.0, 0.0, 0.0, 0.0, 0.022, -0.042, 1.02, 192.0, 0.0, 0.0, 0.0, 0.0, 0.0, 0.0, 0.0, 0.0, 0.0, 1.62155518907531E9, 0.0, 2021-05-20 19:59:49.075
203.0, 22210.45907860507, 0.0, 0.0, 0.0, 0.0, 0.0, 0.0, 0.0, 0.022, -0.042, 1.02, 192.0, 0.0, 0.0, 0.0, 0.0, 0.0, 0.0, 0.0, 0.0, 0.0, 1.621555189075317E9, 0.0, 2021-05-20 19:59:49.075
204.0, 22454.00368619009, 0.0, 0.0, 0.0, 0.0, 0.0, 0.0, 0.0, 0.022, -0.042, 1.02, 192.0, 0.0, 0.0, 0.0, 0.0, 0.0, 0.0, 0.0, 0.0, 0.0, 1.621555189083256E9, 0.0, 2021-05-20 19:59:49.083
205.0, 22381.896958577272, 0.0, 0.0, 0.0, 0.0, 0.0, 0.0, 0.0, 0.022, -0.042, 1.02, 192.0, 0.0, 0.0, 0.0, 0.0, 0.0, 0.0, 0.0, 0.0, 0.0, 1.621555189083263E9, 0.0, 2021-05-20 19:59:49.083
206.0, 22183.793447469885, 0.0, 0.0, 0.0, 0.0, 0.0, 0.0, 0.0, 0.022, -0.042, 1.02, 192.0, 0.0, 0.0, 0.0, 0.0, 0.0, 0.0, 0.0, 0.0, 0.0, 1.621555189091264E9, 0.0, 2021-05-20 19:59:49.091
207.0, 22288.444315009634, 0.0, 0.0, 0.0, 0.0, 0.0, 0.0, 0.0, 0.022, -0.042, 1.02, 192.0, 0.0, 0.0, 0.0, 0.0, 0.0, 0.0, 0.0, 0.0, 0.0, 1.621555189091272E9, 0.0, 2021-05-20 19:59:49.091
208.0, 22463.45847409469, 0.0, 0.0, 0.0, 0.0, 0.0, 0.0, 0.0, 0.02, -0.042, 1.022, 192.0, 0.0, 160.0, 254.0, 176.0, 31.0, 240.0, 0.0, 0.0, 0.0, 1.621555189098275E9, 0.0, 2021-05-20 19:59:49.098
209.0, 22394.168066283237, 0.0, 0.0, 0.0, 0.0, 0.0, 0.0, 0.0, 0.02, -0.042, 1.022, 192.0, 0.0, 0.0, 0.0, 0.0, 0.0, 0.0, 0.0, 0.0, 0.0, 1.621555189098283E9, 0.0, 2021-05-20 19:59:49.098
210.0, 22206.212247158557, 0.0, 0.0, 0.0, 0.0, 0.0, 0.0, 0.0, 0.02, -0.042, 1.022, 192.0, 0.0, 0.0, 0.0, 0.0, 0.0, 0.0, 0.0, 0.0, 0.0, 1.621555189105824E9, 0.0, 2021-05-20 19:59:49.105
211.0, 22195.125781908726, 0.0, 0.0, 0.0, 0.0, 0.0, 0.0, 0.0, 0.02, -0.042, 1.022, 192.0, 0.0, 0.0, 0.0, 0.0, 0.0, 0.0, 0.0, 0.0, 0.0, 1.621555189105831E9, 0.0, 2021-05-20 19:59:49.105
212.0, 22405.29923502198, 0.0, 0.0, 0.0, 0.0, 0.0, 0.0, 0.0, 0.02, -0.042, 1.022, 192.0, 0.0, 0.0, 0.0, 0.0, 0.0, 0.0, 0.0, 0.0, 0.0, 1.621555189115255E9, 0.0, 2021-05-20 19:59:49.115
213.0, 22397.43142097371, 0.0, 0.0, 0.0, 0.0, 0.0, 0.0, 0.0, 0.02, -0.042, 1.022, 192.0, 0.0, 0.0, 0.0, 0.0, 0.0, 0.0, 0.0, 0.0, 0.0, 1.621555189115262E9, 0.0, 2021-05-20 19:59:49.115
214.0, 22186.363898082247, 0.0, 0.0, 0.0, 0.0, 0.0, 0.0, 0.0, 0.02, -0.042, 1.022, 192.0, 0.0, 0.0, 0.0, 0.0, 0.0, 0.0, 0.0, 0.0, 0.0, 1.621555189121304E9, 0.0, 2021-05-20 19:59:49.121
215.0, 22155.116159333727, 0.0, 0.0, 0.0, 0.0, 0.0, 0.0, 0.0, 0.02, -0.042, 1.022, 192.0, 0.0, 0.0, 0.0, 0.0, 0.0, 0.0, 0.0, 0.0, 0.0, 1.621555189121311E9, 0.0, 2021-05-20 19:59:49.121
216.0, 22389.340089480887, 0.0, 0.0, 0.0, 0.0, 0.0, 0.0, 0.0, 0.02, -0.042, 1.022, 192.0, 0.0, 0.0, 0.0, 0.0, 0.0, 0.0, 0.0, 0.0, 0.0, 1.621555189127642E9, 0.0, 2021-05-20 19:59:49.127
217.0, 22446.87347970885, 0.0, 0.0, 0.0, 0.0, 0.0, 0.0, 0.0, 0.02, -0.042, 1.022, 192.0, 0.0, 0.0, 0.0, 0.0, 0.0, 0.0, 0.0, 0.0, 0.0, 1.621555189127656E9, 0.0, 2021-05-20 19:59:49.127
218.0, 22257.822425105864, 0.0, 0.0, 0.0, 0.0, 0.0, 0.0, 0.0, 0.018000000000000002, -0.042, 1.02, 192.0, 0.0, 144.0, 254.0, 176.0, 31.0, 224.0, 0.0, 0.0, 0.0, 1.621555189135515E9, 0.0, 2021-05-20 19:59:49.135
219.0, 22173.06461013134, 0.0, 0.0, 0.0, 0.0, 0.0, 0.0, 0.0, 0.018000000000000002, -0.042, 1.02, 192.0, 0.0, 0.0, 0.0, 0.0, 0.0, 0.0, 0.0, 0.0, 0.0, 1.621555189143412E9, 0.0, 2021-05-20 19:59:49.143
220.0, 22231.73793932652, 0.0, 0.0, 0.0, 0.0, 0.0, 0.0, 0.0, 0.018000000000000002, -0.042, 1.02, 192.0, 0.0, 0.0, 0.0, 0.0, 0.0, 0.0, 0.0, 0.0, 0.0, 1.621555189143419E9, 0.0, 2021-05-20 19:59:49.143
221.0, 22361.445112400666, 0.0, 0.0, 0.0, 0.0, 0.0, 0.0, 0.0, 0.018000000000000002, -0.042, 1.02, 192.0, 0.0, 0.0, 0.0, 0.0, 0.0, 0.0, 0.0, 0.0, 0.0, 1.621555189150617E9, 0.0, 2021-05-20 19:59:49.150
222.0, 22245.484262166534, 0.0, 0.0, 0.0, 0.0, 0.0, 0.0, 0.0, 0.018000000000000002, -0.042, 1.02, 192.0, 0.0, 0.0, 0.0, 0.0, 0.0, 0.0, 0.0, 0.0, 0.0, 1.621555189150623E9, 0.0, 2021-05-20 19:59:49.150
223.0, 22176.95381366656, 0.0, 0.0, 0.0, 0.0, 0.0, 0.0, 0.0, 0.018000000000000002, -0.042, 1.02, 192.0, 0.0, 0.0, 0.0, 0.0, 0.0, 0.0, 0.0, 0.0, 0.0, 1.621555189158083E9, 0.0, 2021-05-20 19:59:49.158
224.0, 22243.964343543572, 0.0, 0.0, 0.0, 0.0, 0.0, 0.0, 0.0, 0.018000000000000002, -0.042, 1.02, 192.0, 0.0, 0.0, 0.0, 0.0, 0.0, 0.0, 0.0, 0.0, 0.0, 1.62155518915809E9, 0.0, 2021-05-20 19:59:49.158
225.0, 22408.58494145691, 0.0, 0.0, 0.0, 0.0, 0.0, 0.0, 0.0, 0.018000000000000002, -0.042, 1.02, 192.0, 0.0, 0.0, 0.0, 0.0, 0.0, 0.0, 0.0, 0.0, 0.0, 1.621555189166111E9, 0.0, 2021-05-20 19:59:49.166
226.0, 22313.210047866112, 0.0, 0.0, 0.0, 0.0, 0.0, 0.0, 0.0, 0.018000000000000002, -0.042, 1.02, 192.0, 0.0, 0.0, 0.0, 0.0, 0.0, 0.0, 0.0, 0.0, 0.0, 1.621555189166119E9, 0.0, 2021-05-20 19:59:49.166
227.0, 22104.400051164634, 0.0, 0.0, 0.0, 0.0, 0.0, 0.0, 0.0, 0.018000000000000002, -0.042, 1.02, 192.0, 0.0, 0.0, 0.0, 0.0, 0.0, 0.0, 0.0, 0.0, 0.0, 1.621555189174493E9, 0.0, 2021-05-20 19:59:49.174
228.0, 22303.598797750332, 0.0, 0.0, 0.0, 0.0, 0.0, 0.0, 0.0, 0.018000000000000002, -0.046, 1.024, 192.0, 0.0, 144.0, 254.0, 144.0, 32.0, 0.0, 0.0, 0.0, 0.0, 1.621555189174501E9, 0.0, 2021-05-20 19:59:49.174
229.0, 22522.757652134616, 0.0, 0.0, 0.0, 0.0, 0.0, 0.0, 0.0, 0.018000000000000002, -0.046, 1.024, 192.0, 0.0, 0.0, 0.0, 0.0, 0.0, 0.0, 0.0, 0.0, 0.0, 1.621555189180831E9, 0.0, 2021-05-20 19:59:49.180
230.0, 22331.71729227511, 0.0, 0.0, 0.0, 0.0, 0.0, 0.0, 0.0, 0.018000000000000002, -0.046, 1.024, 192.0, 0.0, 0.0, 0.0, 0.0, 0.0, 0.0, 0.0, 0.0, 0.0, 1.621555189180839E9, 0.0, 2021-05-20 19:59:49.180
231.0, 22156.032580856394, 0.0, 0.0, 0.0, 0.0, 0.0, 0.0, 0.0, 0.018000000000000002, -0.046, 1.024, 192.0, 0.0, 0.0, 0.0, 0.0, 0.0, 0.0, 0.0, 0.0, 0.0, 1.621555189189193E9, 0.0, 2021-05-20 19:59:49.189
232.0, 22228.832212547328, 0.0, 0.0, 0.0, 0.0, 0.0, 0.0, 0.0, 0.018000000000000002, -0.046, 1.024, 192.0, 0.0, 0.0, 0.0, 0.0, 0.0, 0.0, 0.0, 0.0, 0.0, 1.621555189189202E9, 0.0, 2021-05-20 19:59:49.189
233.0, 22430.57905800093, 0.0, 0.0, 0.0, 0.0, 0.0, 0.0, 0.0, 0.018000000000000002, -0.046, 1.024, 192.0, 0.0, 0.0, 0.0, 0.0, 0.0, 0.0, 0.0, 0.0, 0.0, 1.621555189195736E9, 0.0, 2021-05-20 19:59:49.195
234.0, 22411.20009555818, 0.0, 0.0, 0.0, 0.0, 0.0, 0.0, 0.0, 0.018000000000000002, -0.046, 1.024, 192.0, 0.0, 0.0, 0.0, 0.0, 0.0, 0.0, 0.0, 0.0, 0.0, 1.621555189202803E9, 0.0, 2021-05-20 19:59:49.202
235.0, 22209.296787893392, 0.0, 0.0, 0.0, 0.0, 0.0, 0.0, 0.0, 0.018000000000000002, -0.046, 1.024, 192.0, 0.0, 0.0, 0.0, 0.0, 0.0, 0.0, 0.0, 0.0, 0.0, 1.62155518920281E9, 0.0, 2021-05-20 19:59:49.202
236.0, 22199.73024126652, 0.0, 0.0, 0.0, 0.0, 0.0, 0.0, 0.0, 0.018000000000000002, -0.046, 1.024, 192.0, 0.0, 0.0, 0.0, 0.0, 0.0, 0.0, 0.0, 0.0, 0.0, 1.621555189210427E9, 0.0, 2021-05-20 19:59:49.210
237.0, 22365.401371169257, 0.0, 0.0, 0.0, 0.0, 0.0, 0.0, 0.0, 0.018000000000000002, -0.046, 1.024, 192.0, 0.0, 0.0, 0.0, 0.0, 0.0, 0.0, 0.0, 0.0, 0.0, 1.621555189210435E9, 0.0, 2021-05-20 19:59:49.210
238.0, 22377.51601666403, 0.0, 0.0, 0.0, 0.0, 0.0, 0.0, 0.0, 0.014, -0.046, 1.026, 192.0, 0.0, 112.0, 254.0, 144.0, 32.0, 16.0, 0.0, 0.0, 0.0, 1.621555189218435E9, 0.0, 2021-05-20 19:59:49.218
239.0, 22218.81863103135, 0.0, 0.0, 0.0, 0.0, 0.0, 0.0, 0.0, 0.014, -0.046, 1.026, 192.0, 0.0, 0.0, 0.0, 0.0, 0.0, 0.0, 0.0, 0.0, 0.0, 1.621555189218442E9, 0.0, 2021-05-20 19:59:49.218
240.0, 22203.306520379367, 0.0, 0.0, 0.0, 0.0, 0.0, 0.0, 0.0, 0.014, -0.046, 1.026, 192.0, 0.0, 0.0, 0.0, 0.0, 0.0, 0.0, 0.0, 0.0, 0.0, 1.621555189226445E9, 0.0, 2021-05-20 19:59:49.226
241.0, 22427.91920041075, 0.0, 0.0, 0.0, 0.0, 0.0, 0.0, 0.0, 0.014, -0.046, 1.026, 192.0, 0.0, 0.0, 0.0, 0.0, 0.0, 0.0, 0.0, 0.0, 0.0, 1.621555189226452E9, 0.0, 2021-05-20 19:59:49.226
242.0, 22410.551894968976, 0.0, 0.0, 0.0, 0.0, 0.0, 0.0, 0.0, 0.014, -0.046, 1.026, 192.0, 0.0, 0.0, 0.0, 0.0, 0.0, 0.0, 0.0, 0.0, 0.0, 1.621555189232925E9, 0.0, 2021-05-20 19:59:49.232
243.0, 22194.00819468596, 0.0, 0.0, 0.0, 0.0, 0.0, 0.0, 0.0, 0.014, -0.046, 1.026, 192.0, 0.0, 0.0, 0.0, 0.0, 0.0, 0.0, 0.0, 0.0, 0.0, 1.621555189232932E9, 0.0, 2021-05-20 19:59:49.232
244.0, 22074.113437427695, 0.0, 0.0, 0.0, 0.0, 0.0, 0.0, 0.0, 0.014, -0.046, 1.026, 192.0, 0.0, 0.0, 0.0, 0.0, 0.0, 0.0, 0.0, 0.0, 0.0, 1.621555189240958E9, 0.0, 2021-05-20 19:59:49.240
245.0, 22287.88552139825, 0.0, 0.0, 0.0, 0.0, 0.0, 0.0, 0.0, 0.014, -0.046, 1.026, 192.0, 0.0, 0.0, 0.0, 0.0, 0.0, 0.0, 0.0, 0.0, 0.0, 1.621555189240965E9, 0.0, 2021-05-20 19:59:49.240
246.0, 22418.263246806055, 0.0, 0.0, 0.0, 0.0, 0.0, 0.0, 0.0, 0.014, -0.046, 1.026, 192.0, 0.0, 0.0, 0.0, 0.0, 0.0, 0.0, 0.0, 0.0, 0.0, 1.621555189248972E9, 0.0, 2021-05-20 19:59:49.248
247.0, 22219.48918336501, 0.0, 0.0, 0.0, 0.0, 0.0, 0.0, 0.0, 0.014, -0.046, 1.026, 192.0, 0.0, 0.0, 0.0, 0.0, 0.0, 0.0, 0.0, 0.0, 0.0, 1.621555189248981E9, 0.0, 2021-05-20 19:59:49.248
248.0, 22118.302836215837, 0.0, 0.0, 0.0, 0.0, 0.0, 0.0, 0.0, 0.024, -0.046, 1.03, 192.0, 0.0, 192.0, 254.0, 144.0, 32.0, 48.0, 0.0, 0.0, 0.0, 1.621555189256156E9, 0.0, 2021-05-20 19:59:49.256
249.0, 22277.670774182174, 0.0, 0.0, 0.0, 0.0, 0.0, 0.0, 0.0, 0.024, -0.046, 1.03, 192.0, 0.0, 0.0, 0.0, 0.0, 0.0, 0.0, 0.0, 0.0, 0.0, 1.621555189262602E9, 0.0, 2021-05-20 19:59:49.262
250.0, 22384.46740918963, 0.0, 0.0, 0.0, 0.0, 0.0, 0.0, 0.0, 0.024, -0.046, 1.03, 192.0, 0.0, 0.0, 0.0, 0.0, 0.0, 0.0, 0.0, 0.0, 0.0, 1.621555189262609E9, 0.0, 2021-05-20 19:59:49.262
251.0, 22285.82916090836, 0.0, 0.0, 0.0, 0.0, 0.0, 0.0, 0.0, 0.024, -0.046, 1.03, 192.0, 0.0, 0.0, 0.0, 0.0, 0.0, 0.0, 0.0, 0.0, 0.0, 1.621555189272306E9, 0.0, 2021-05-20 19:59:49.272
252.0, 22134.28433350138, 0.0, 0.0, 0.0, 0.0, 0.0, 0.0, 0.0, 0.024, -0.046, 1.03, 192.0, 0.0, 0.0, 0.0, 0.0, 0.0, 0.0, 0.0, 0.0, 0.0, 1.621555189272323E9, 0.0, 2021-05-20 19:59:49.272
253.0, 22229.16748871416, 0.0, 0.0, 0.0, 0.0, 0.0, 0.0, 0.0, 0.024, -0.046, 1.03, 192.0, 0.0, 0.0, 0.0, 0.0, 0.0, 0.0, 0.0, 0.0, 0.0, 1.621555189279221E9, 0.0, 2021-05-20 19:59:49.279
254.0, 22397.699641907173, 0.0, 0.0, 0.0, 0.0, 0.0, 0.0, 0.0, 0.024, -0.046, 1.03, 192.0, 0.0, 0.0, 0.0, 0.0, 0.0, 0.0, 0.0, 0.0, 0.0, 1.62155518927923E9, 0.0, 2021-05-20 19:59:49.279
255.0, 22306.2139518516, 0.0, 0.0, 0.0, 0.0, 0.0, 0.0, 0.0, 0.024, -0.046, 1.03, 192.0, 0.0, 0.0, 0.0, 0.0, 0.0, 0.0, 0.0, 0.0, 0.0, 1.62155518928576E9, 0.0, 2021-05-20 19:59:49.285
0.0, 22098.27567318388, 0.0, 0.0, 0.0, 0.0, 0.0, 0.0, 0.0, 0.024, -0.046, 1.03, 192.0, 0.0, 0.0, 0.0, 0.0, 0.0, 0.0, 0.0, 0.0, 0.0, 1.621555189285773E9, 0.0, 2021-05-20 19:59:49.285
1.0, 22178.71960147853, 0.0, 0.0, 0.0, 0.0, 0.0, 0.0, 0.0, 0.024, -0.046, 1.03, 192.0, 0.0, 0.0, 0.0, 0.0, 0.0, 0.0, 0.0, 0.0, 0.0, 1.621555189293208E9, 0.0, 2021-05-20 19:59:49.293
2.0, 22438.53627902702, 0.0, 0.0, 0.0, 0.0, 0.0, 0.0, 0.0, 0.022, -0.04, 1.028, 192.0, 0.0, 176.0, 254.0, 192.0, 32.0, 32.0, 0.0, 0.0, 0.0, 1.621555189293215E9, 0.0, 2021-05-20 19:59:49.293
3.0, 22363.14384497927, 0.0, 0.0, 0.0, 0.0, 0.0, 0.0, 0.0, 0.022, -0.04, 1.028, 192.0, 0.0, 0.0, 0.0, 0.0, 0.0, 0.0, 0.0, 0.0, 0.0, 1.621555189301382E9, 0.0, 2021-05-20 19:59:49.301
4.0, 22090.832542280263, 0.0, 0.0, 0.0, 0.0, 0.0, 0.0, 0.0, 0.022, -0.04, 1.028, 192.0, 0.0, 0.0, 0.0, 0.0, 0.0, 0.0, 0.0, 0.0, 0.0, 1.621555189301389E9, 0.0, 2021-05-20 19:59:49.301
5.0, 22112.871362313195, 0.0, 0.0, 0.0, 0.0, 0.0, 0.0, 0.0, 0.022, -0.04, 1.028, 192.0, 0.0, 0.0, 0.0, 0.0, 0.0, 0.0, 0.0, 0.0, 0.0, 1.621555189309331E9, 0.0, 2021-05-20 19:59:49.309
6.0, 22374.297365462466, 0.0, 0.0, 0.0, 0.0, 0.0, 0.0, 0.0, 0.022, -0.04, 1.028, 192.0, 0.0, 0.0, 0.0, 0.0, 0.0, 0.0, 0.0, 0.0, 0.0, 1.621555189309339E9, 0.0, 2021-05-20 19:59:49.309
7.0, 22347.56467909392, 0.0, 0.0, 0.0, 0.0, 0.0, 0.0, 0.0, 0.022, -0.04, 1.028, 192.0, 0.0, 0.0, 0.0, 0.0, 0.0, 0.0, 0.0, 0.0, 0.0, 1.621555189315468E9, 0.0, 2021-05-20 19:59:49.315
8.0, 22175.76917121043, 0.0, 0.0, 0.0, 0.0, 0.0, 0.0, 0.0, 0.022, -0.04, 1.028, 192.0, 0.0, 0.0, 0.0, 0.0, 0.0, 0.0, 0.0, 0.0, 0.0, 1.621555189322968E9, 0.0, 2021-05-20 19:59:49.322
9.0, 22188.286148105402, 0.0, 0.0, 0.0, 0.0, 0.0, 0.0, 0.0, 0.022, -0.04, 1.028, 192.0, 0.0, 0.0, 0.0, 0.0, 0.0, 0.0, 0.0, 0.0, 0.0, 1.621555189322975E9, 0.0, 2021-05-20 19:59:49.322
10.0, 22407.400299000776, 0.0, 0.0, 0.0, 0.0, 0.0, 0.0, 0.0, 0.022, -0.04, 1.028, 192.0, 0.0, 0.0, 0.0, 0.0, 0.0, 0.0, 0.0, 0.0, 0.0, 1.621555189330949E9, 0.0, 2021-05-20 19:59:49.330
11.0, 22446.046465164003, 0.0, 0.0, 0.0, 0.0, 0.0, 0.0, 0.0, 0.022, -0.04, 1.028, 192.0, 0.0, 0.0, 0.0, 0.0, 0.0, 0.0, 0.0, 0.0, 0.0, 1.621555189330956E9, 0.0, 2021-05-20 19:59:49.330
12.0, 22172.01407814194, 0.0, 0.0, 0.0, 0.0, 0.0, 0.0, 0.0, 0.026000000000000002, -0.04, 1.026, 192.0, 0.0, 208.0, 254.0, 192.0, 32.0, 16.0, 0.0, 0.0, 0.0, 1.621555189338972E9, 0.0, 2021-05-20 19:59:49.338
13.0, 22084.41759162159, 0.0, 0.0, 0.0, 0.0, 0.0, 0.0, 0.0, 0.026000000000000002, -0.04, 1.026, 192.0, 0.0, 0.0, 0.0, 0.0, 0.0, 0.0, 0.0, 0.0, 0.0, 1.62155518933898E9, 0.0, 2021-05-20 19:59:49.338
14.0, 22302.302396571922, 0.0, 0.0, 0.0, 0.0, 0.0, 0.0, 0.0, 0.026000000000000002, -0.04, 1.026, 192.0, 0.0, 0.0, 0.0, 0.0, 0.0, 0.0, 0.0, 0.0, 0.0, 1.621555189346055E9, 0.0, 2021-05-20 19:59:49.346
15.0, 22534.492317973654, 0.0, 0.0, 0.0, 0.0, 0.0, 0.0, 0.0, 0.026000000000000002, -0.04, 1.026, 192.0, 0.0, 0.0, 0.0, 0.0, 0.0, 0.0, 0.0, 0.0, 0.0, 1.621555189346062E9, 0.0, 2021-05-20 19:59:49.346
16.0, 22348.235231427578, 0.0, 0.0, 0.0, 0.0, 0.0, 0.0, 0.0, 0.026000000000000002, -0.04, 1.026, 192.0, 0.0, 0.0, 0.0, 0.0, 0.0, 0.0, 0.0, 0.0, 0.0, 1.621555189353624E9, 0.0, 2021-05-20 19:59:49.353
17.0, 22081.623623564676, 0.0, 0.0, 0.0, 0.0, 0.0, 0.0, 0.0, 0.026000000000000002, -0.04, 1.026, 192.0, 0.0, 0.0, 0.0, 0.0, 0.0, 0.0, 0.0, 0.0, 0.0, 1.621555189353632E9, 0.0, 2021-05-20 19:59:49.353
18.0, 22187.839113216294, 0.0, 0.0, 0.0, 0.0, 0.0, 0.0, 0.0, 0.026000000000000002, -0.04, 1.026, 192.0, 0.0, 0.0, 0.0, 0.0, 0.0, 0.0, 0.0, 0.0, 0.0, 1.621555189361688E9, 0.0, 2021-05-20 19:59:49.361
19.0, 22383.2827667335, 0.0, 0.0, 0.0, 0.0, 0.0, 0.0, 0.0, 0.026000000000000002, -0.04, 1.026, 192.0, 0.0, 0.0, 0.0, 0.0, 0.0, 0.0, 0.0, 0.0, 0.0, 1.621555189361698E9, 0.0, 2021-05-20 19:59:49.361
20.0, 22282.6105097068, 0.0, 0.0, 0.0, 0.0, 0.0, 0.0, 0.0, 0.026000000000000002, -0.04, 1.026, 192.0, 0.0, 0.0, 0.0, 0.0, 0.0, 0.0, 0.0, 0.0, 0.0, 1.621555189368735E9, 0.0, 2021-05-20 19:59:49.368
21.0, 22145.61666794022, 0.0, 0.0, 0.0, 0.0, 0.0, 0.0, 0.0, 0.02, -0.042, 1.026, 192.0, 0.0, 160.0, 254.0, 176.0, 32.0, 16.0, 0.0, 0.0, 0.0, 1.621555189368743E9, 0.0, 2021-05-20 19:59:49.368
22.0, 22173.757514209454, 0.0, 0.0, 0.0, 0.0, 0.0, 0.0, 0.0, 0.02, -0.042, 1.026, 192.0, 0.0, 0.0, 0.0, 0.0, 0.0, 0.0, 0.0, 0.0, 0.0, 1.621555189375282E9, 0.0, 2021-05-20 19:59:49.375
23.0, 22284.130428329758, 0.0, 0.0, 0.0, 0.0, 0.0, 0.0, 0.0, 0.02, -0.042, 1.026, 192.0, 0.0, 0.0, 0.0, 0.0, 0.0, 0.0, 0.0, 0.0, 0.0, 1.621555189375289E9, 0.0, 2021-05-20 19:59:49.375
24.0, 22240.611581875277, 0.0, 0.0, 0.0, 0.0, 0.0, 0.0, 0.0, 0.02, -0.042, 1.026, 192.0, 0.0, 0.0, 0.0, 0.0, 0.0, 0.0, 0.0, 0.0, 0.0, 1.621555189383293E9, 0.0, 2021-05-20 19:59:49.383
25.0, 22064.613946034187, 0.0, 0.0, 0.0, 0.0, 0.0, 0.0, 0.0, 0.02, -0.042, 1.026, 192.0, 0.0, 0.0, 0.0, 0.0, 0.0, 0.0, 0.0, 0.0, 0.0, 1.621555189391191E9, 0.0, 2021-05-20 19:59:49.391
26.0, 22144.543784206366, 0.0, 0.0, 0.0, 0.0, 0.0, 0.0, 0.0, 0.02, -0.042, 1.026, 192.0, 0.0, 0.0, 0.0, 0.0, 0.0, 0.0, 0.0, 0.0, 0.0, 1.621555189391198E9, 0.0, 2021-05-20 19:59:49.391
27.0, 22331.359664363823, 0.0, 0.0, 0.0, 0.0, 0.0, 0.0, 0.0, 0.02, -0.042, 1.026, 192.0, 0.0, 0.0, 0.0, 0.0, 0.0, 0.0, 0.0, 0.0, 0.0, 1.621555189397878E9, 0.0, 2021-05-20 19:59:49.397
28.0, 22328.744510262553, 0.0, 0.0, 0.0, 0.0, 0.0, 0.0, 0.0, 0.02, -0.042, 1.026, 192.0, 0.0, 0.0, 0.0, 0.0, 0.0, 0.0, 0.0, 0.0, 0.0, 1.621555189397884E9, 0.0, 2021-05-20 19:59:49.397
29.0, 22099.929702273574, 0.0, 0.0, 0.0, 0.0, 0.0, 0.0, 0.0, 0.02, -0.042, 1.026, 192.0, 0.0, 0.0, 0.0, 0.0, 0.0, 0.0, 0.0, 0.0, 0.0, 1.621555189405868E9, 0.0, 2021-05-20 19:59:49.405
30.0, 22115.754737347932, 0.0, 0.0, 0.0, 0.0, 0.0, 0.0, 0.0, 0.02, -0.042, 1.026, 192.0, 0.0, 0.0, 0.0, 0.0, 0.0, 0.0, 0.0, 0.0, 0.0, 1.621555189405874E9, 0.0, 2021-05-20 19:59:49.405
31.0, 22292.93701564515, 0.0, 0.0, 0.0, 0.0, 0.0, 0.0, 0.0, 0.018000000000000002, -0.046, 1.022, 192.0, 0.0, 144.0, 254.0, 144.0, 31.0, 240.0, 0.0, 0.0, 0.0, 1.621555189413904E9, 0.0, 2021-05-20 19:59:49.413
32.0, 22297.720288958586, 0.0, 0.0, 0.0, 0.0, 0.0, 0.0, 0.0, 0.018000000000000002, -0.046, 1.022, 192.0, 0.0, 0.0, 0.0, 0.0, 0.0, 0.0, 0.0, 0.0, 0.0, 1.621555189413913E9, 0.0, 2021-05-20 19:59:49.413
33.0, 22150.3775895092, 0.0, 0.0, 0.0, 0.0, 0.0, 0.0, 0.0, 0.018000000000000002, -0.046, 1.022, 192.0, 0.0, 0.0, 0.0, 0.0, 0.0, 0.0, 0.0, 0.0, 0.0, 1.621555189420981E9, 0.0, 2021-05-20 19:59:49.420
34.0, 22068.83842573624, 0.0, 0.0, 0.0, 0.0, 0.0, 0.0, 0.0, 0.018000000000000002, -0.046, 1.022, 192.0, 0.0, 0.0, 0.0, 0.0, 0.0, 0.0, 0.0, 0.0, 0.0, 1.621555189420989E9, 0.0, 2021-05-20 19:59:49.420
35.0, 22188.4873138055, 0.0, 0.0, 0.0, 0.0, 0.0, 0.0, 0.0, 0.018000000000000002, -0.046, 1.022, 192.0, 0.0, 0.0, 0.0, 0.0, 0.0, 0.0, 0.0, 0.0, 0.0, 1.621555189428797E9, 0.0, 2021-05-20 19:59:49.428
36.0, 22350.60451633984, 0.0, 0.0, 0.0, 0.0, 0.0, 0.0, 0.0, 0.018000000000000002, -0.046, 1.022, 192.0, 0.0, 0.0, 0.0, 0.0, 0.0, 0.0, 0.0, 0.0, 0.0, 1.621555189428807E9, 0.0, 2021-05-20 19:59:49.428
37.0, 22182.00530791346, 0.0, 0.0, 0.0, 0.0, 0.0, 0.0, 0.0, 0.018000000000000002, -0.046, 1.022, 192.0, 0.0, 0.0, 0.0, 0.0, 0.0, 0.0, 0.0, 0.0, 0.0, 1.621555189436531E9, 0.0, 2021-05-20 19:59:49.436
38.0, 22053.639239506632, 0.0, 0.0, 0.0, 0.0, 0.0, 0.0, 0.0, 0.018000000000000002, -0.046, 1.022, 192.0, 0.0, 0.0, 0.0, 0.0, 0.0, 0.0, 0.0, 0.0, 0.0, 1.621555189436538E9, 0.0, 2021-05-20 19:59:49.436
39.0, 22228.16166021367, 0.0, 0.0, 0.0, 0.0, 0.0, 0.0, 0.0, 0.018000000000000002, -0.046, 1.022, 192.0, 0.0, 0.0, 0.0, 0.0, 0.0, 0.0, 0.0, 0.0, 0.0, 1.621555189443576E9, 0.0, 2021-05-20 19:59:49.443
40.0, 22411.62477870283, 0.0, 0.0, 0.0, 0.0, 0.0, 0.0, 0.0, 0.018000000000000002, -0.046, 1.022, 192.0, 0.0, 0.0, 0.0, 0.0, 0.0, 0.0, 0.0, 0.0, 0.0, 1.621555189450553E9, 0.0, 2021-05-20 19:59:49.450
41.0, 22286.723230686574, 0.0, 0.0, 0.0, 0.0, 0.0, 0.0, 0.0, 0.018000000000000002, -0.044, 1.02, 192.0, 0.0, 144.0, 254.0, 160.0, 31.0, 224.0, 0.0, 0.0, 0.0, 1.621555189450561E9, 0.0, 2021-05-20 19:59:49.450
42.0, 22273.043963079926, 0.0, 0.0, 0.0, 0.0, 0.0, 0.0, 0.0, 0.018000000000000002, -0.044, 1.02, 192.0, 0.0, 0.0, 0.0, 0.0, 0.0, 0.0, 0.0, 0.0, 0.0, 1.621555189458144E9, 0.0, 2021-05-20 19:59:49.458
43.0, 22380.645260887773, 0.0, 0.0, 0.0, 0.0, 0.0, 0.0, 0.0, 0.018000000000000002, -0.044, 1.02, 192.0, 0.0, 0.0, 0.0, 0.0, 0.0, 0.0, 0.0, 0.0, 0.0, 1.621555189458151E9, 0.0, 2021-05-20 19:59:49.458
44.0, 22601.86047576195, 0.0, 0.0, 0.0, 0.0, 0.0, 0.0, 0.0, 0.018000000000000002, -0.044, 1.02, 192.0, 0.0, 0.0, 0.0, 0.0, 0.0, 0.0, 0.0, 0.0, 0.0, 1.621555189466131E9, 0.0, 2021-05-20 19:59:49.466
45.0, 22685.992441891725, 0.0, 0.0, 0.0, 0.0, 0.0, 0.0, 0.0, 0.018000000000000002, -0.044, 1.02, 192.0, 0.0, 0.0, 0.0, 0.0, 0.0, 0.0, 0.0, 0.0, 0.0, 1.621555189466138E9, 0.0, 2021-05-20 19:59:49.466
46.0, 22497.075497755468, 0.0, 0.0, 0.0, 0.0, 0.0, 0.0, 0.0, 0.018000000000000002, -0.044, 1.02, 192.0, 0.0, 0.0, 0.0, 0.0, 0.0, 0.0, 0.0, 0.0, 0.0, 1.621555189474112E9, 0.0, 2021-05-20 19:59:49.474
47.0, 22466.54301482952, 0.0, 0.0, 0.0, 0.0, 0.0, 0.0, 0.0, 0.018000000000000002, -0.044, 1.02, 192.0, 0.0, 0.0, 0.0, 0.0, 0.0, 0.0, 0.0, 0.0, 0.0, 1.62155518947412E9, 0.0, 2021-05-20 19:59:49.474
48.0, 22578.927585950805, 0.0, 0.0, 0.0, 0.0, 0.0, 0.0, 0.0, 0.018000000000000002, -0.044, 1.02, 192.0, 0.0, 0.0, 0.0, 0.0, 0.0, 0.0, 0.0, 0.0, 0.0, 1.621555189480754E9, 0.0, 2021-05-20 19:59:49.480
49.0, 22363.255603701546, 0.0, 0.0, 0.0, 0.0, 0.0, 0.0, 0.0, 0.018000000000000002, -0.044, 1.02, 192.0, 0.0, 0.0, 0.0, 0.0, 0.0, 0.0, 0.0, 0.0, 0.0, 1.621555189480766E9, 0.0, 2021-05-20 19:59:49.480
50.0, 22039.200012588502, 0.0, 0.0, 0.0, 0.0, 0.0, 0.0, 0.0, 0.018000000000000002, -0.044, 1.02, 192.0, 0.0, 0.0, 0.0, 0.0, 0.0, 0.0, 0.0, 0.0, 0.0, 1.621555189488751E9, 0.0, 2021-05-20 19:59:49.488
51.0, 22067.676135024565, 0.0, 0.0, 0.0, 0.0, 0.0, 0.0, 0.0, 0.022, -0.04, 1.026, 192.0, 0.0, 176.0, 254.0, 192.0, 32.0, 16.0, 0.0, 0.0, 0.0, 1.621555189488759E9, 0.0, 2021-05-20 19:59:49.488
52.0, 22263.544471686422, 0.0, 0.0, 0.0, 0.0, 0.0, 0.0, 0.0, 0.022, -0.04, 1.026, 192.0, 0.0, 0.0, 0.0, 0.0, 0.0, 0.0, 0.0, 0.0, 0.0, 1.621555189496698E9, 0.0, 2021-05-20 19:59:49.496
53.0, 22311.153687376223, 0.0, 0.0, 0.0, 0.0, 0.0, 0.0, 0.0, 0.022, -0.04, 1.026, 192.0, 0.0, 0.0, 0.0, 0.0, 0.0, 0.0, 0.0, 0.0, 0.0, 1.621555189496705E9, 0.0, 2021-05-20 19:59:49.496
54.0, 22037.613038732175, 0.0, 0.0, 0.0, 0.0, 0.0, 0.0, 0.0, 0.022, -0.04, 1.026, 192.0, 0.0, 0.0, 0.0, 0.0, 0.0, 0.0, 0.0, 0.0, 0.0, 1.621555189503919E9, 0.0, 2021-05-20 19:59:49.503
55.0, 21992.887198077107, 0.0, 0.0, 0.0, 0.0, 0.0, 0.0, 0.0, 0.022, -0.04, 1.026, 192.0, 0.0, 0.0, 0.0, 0.0, 0.0, 0.0, 0.0, 0.0, 0.0, 1.621555189510413E9, 0.0, 2021-05-20 19:59:49.510
56.0, 22391.619967415332, 0.0, 0.0, 0.0, 0.0, 0.0, 0.0, 0.0, 0.022, -0.04, 1.026, 192.0, 0.0, 0.0, 0.0, 0.0, 0.0, 0.0, 0.0, 0.0, 0.0, 1.621555189510421E9, 0.0, 2021-05-20 19:59:49.510
57.0, 22445.621782019352, 0.0, 0.0, 0.0, 0.0, 0.0, 0.0, 0.0, 0.022, -0.04, 1.026, 192.0, 0.0, 0.0, 0.0, 0.0, 0.0, 0.0, 0.0, 0.0, 0.0, 1.621555189518364E9, 0.0, 2021-05-20 19:59:49.518
58.0, 22115.642978625656, 0.0, 0.0, 0.0, 0.0, 0.0, 0.0, 0.0, 0.022, -0.04, 1.026, 192.0, 0.0, 0.0, 0.0, 0.0, 0.0, 0.0, 0.0, 0.0, 0.0, 1.621555189518373E9, 0.0, 2021-05-20 19:59:49.518
59.0, 22058.377809331156, 0.0, 0.0, 0.0, 0.0, 0.0, 0.0, 0.0, 0.022, -0.04, 1.026, 192.0, 0.0, 0.0, 0.0, 0.0, 0.0, 0.0, 0.0, 0.0, 0.0, 1.621555189527863E9, 0.0, 2021-05-20 19:59:49.527
60.0, 22348.346990149857, 0.0, 0.0, 0.0, 0.0, 0.0, 0.0, 0.0, 0.022, -0.04, 1.026, 192.0, 0.0, 0.0, 0.0, 0.0, 0.0, 0.0, 0.0, 0.0, 0.0, 1.621555189527877E9, 0.0, 2021-05-20 19:59:49.527
61.0, 22368.530615393, 0.0, 0.0, 0.0, 0.0, 0.0, 0.0, 0.0, 0.022, -0.044, 1.028, 192.0, 0.0, 176.0, 254.0, 160.0, 32.0, 32.0, 0.0, 0.0, 0.0, 1.621555189534053E9, 0.0, 2021-05-20 19:59:49.534
62.0, 22149.215298797524, 0.0, 0.0, 0.0, 0.0, 0.0, 0.0, 0.0, 0.022, -0.044, 1.028, 192.0, 0.0, 0.0, 0.0, 0.0, 0.0, 0.0, 0.0, 0.0, 0.0, 1.62155518953406E9, 0.0, 2021-05-20 19:59:49.534
63.0, 22083.925853243574, 0.0, 0.0, 0.0, 0.0, 0.0, 0.0, 0.0, 0.022, -0.044, 1.028, 192.0, 0.0, 0.0, 0.0, 0.0, 0.0, 0.0, 0.0, 0.0, 0.0, 1.621555189541049E9, 0.0, 2021-05-20 19:59:49.541
64.0, 22262.06925655237, 0.0, 0.0, 0.0, 0.0, 0.0, 0.0, 0.0, 0.022, -0.044, 1.028, 192.0, 0.0, 0.0, 0.0, 0.0, 0.0, 0.0, 0.0, 0.0, 0.0, 1.621555189541056E9, 0.0, 2021-05-20 19:59:49.541
65.0, 22424.275866064534, 0.0, 0.0, 0.0, 0.0, 0.0, 0.0, 0.0, 0.022, -0.044, 1.028, 192.0, 0.0, 0.0, 0.0, 0.0, 0.0, 0.0, 0.0, 0.0, 0.0, 1.621555189549135E9, 0.0, 2021-05-20 19:59:49.549
66.0, 22268.506558955498, 0.0, 0.0, 0.0, 0.0, 0.0, 0.0, 0.0, 0.022, -0.044, 1.028, 192.0, 0.0, 0.0, 0.0, 0.0, 0.0, 0.0, 0.0, 0.0, 0.0, 1.621555189549143E9, 0.0, 2021-05-20 19:59:49.549
67.0, 22087.211559678504, 0.0, 0.0, 0.0, 0.0, 0.0, 0.0, 0.0, 0.022, -0.044, 1.028, 192.0, 0.0, 0.0, 0.0, 0.0, 0.0, 0.0, 0.0, 0.0, 0.0, 1.621555189556282E9, 0.0, 2021-05-20 19:59:49.556
68.0, 22239.337532441325, 0.0, 0.0, 0.0, 0.0, 0.0, 0.0, 0.0, 0.022, -0.044, 1.028, 192.0, 0.0, 0.0, 0.0, 0.0, 0.0, 0.0, 0.0, 0.0, 0.0, 1.621555189556303E9, 0.0, 2021-05-20 19:59:49.556
69.0, 22416.20688631617, 0.0, 0.0, 0.0, 0.0, 0.0, 0.0, 0.0, 0.022, -0.044, 1.028, 192.0, 0.0, 0.0, 0.0, 0.0, 0.0, 0.0, 0.0, 0.0, 0.0, 1.621555189562665E9, 0.0, 2021-05-20 19:59:49.562
70.0, 22314.08176589987, 0.0, 0.0, 0.0, 0.0, 0.0, 0.0, 0.0, 0.022, -0.044, 1.028, 192.0, 0.0, 0.0, 0.0, 0.0, 0.0, 0.0, 0.0, 0.0, 0.0, 1.621555189570742E9, 0.0, 2021-05-20 19:59:49.570
71.0, 22100.823772051786, 0.0, 0.0, 0.0, 0.0, 0.0, 0.0, 0.0, 0.022, -0.04, 1.024, 192.0, 0.0, 176.0, 254.0, 192.0, 32.0, 0.0, 0.0, 0.0, 0.0, 1.621555189570751E9, 0.0, 2021-05-20 19:59:49.570
72.0, 22230.3968346592, 0.0, 0.0, 0.0, 0.0, 0.0, 0.0, 0.0, 0.022, -0.04, 1.024, 192.0, 0.0, 0.0, 0.0, 0.0, 0.0, 0.0, 0.0, 0.0, 0.0, 1.621555189578736E9, 0.0, 2021-05-20 19:59:49.578
73.0, 22482.815084792983, 0.0, 0.0, 0.0, 0.0, 0.0, 0.0, 0.0, 0.022, -0.04, 1.024, 192.0, 0.0, 0.0, 0.0, 0.0, 0.0, 0.0, 0.0, 0.0, 0.0, 1.621555189578744E9, 0.0, 2021-05-20 19:59:49.578
74.0, 22336.388806866267, 0.0, 0.0, 0.0, 0.0, 0.0, 0.0, 0.0, 0.022, -0.04, 1.024, 192.0, 0.0, 0.0, 0.0, 0.0, 0.0, 0.0, 0.0, 0.0, 0.0, 1.621555189586781E9, 0.0, 2021-05-20 19:59:49.586
75.0, 22032.136861340627, 0.0, 0.0, 0.0, 0.0, 0.0, 0.0, 0.0, 0.022, -0.04, 1.024, 192.0, 0.0, 0.0, 0.0, 0.0, 0.0, 0.0, 0.0, 0.0, 0.0, 1.62155518958679E9, 0.0, 2021-05-20 19:59:49.586
76.0, 22107.79751632184, 0.0, 0.0, 0.0, 0.0, 0.0, 0.0, 0.0, 0.022, -0.04, 1.024, 192.0, 0.0, 0.0, 0.0, 0.0, 0.0, 0.0, 0.0, 0.0, 0.0, 1.621555189593526E9, 0.0, 2021-05-20 19:59:49.593
77.0, 22396.87262736233, 0.0, 0.0, 0.0, 0.0, 0.0, 0.0, 0.0, 0.022, -0.04, 1.024, 192.0, 0.0, 0.0, 0.0, 0.0, 0.0, 0.0, 0.0, 0.0, 0.0, 1.621555189593538E9, 0.0, 2021-05-20 19:59:49.593
78.0, 22426.57809574343, 0.0, 0.0, 0.0, 0.0, 0.0, 0.0, 0.0, 0.022, -0.04, 1.024, 192.0, 0.0, 0.0, 0.0, 0.0, 0.0, 0.0, 0.0, 0.0, 0.0, 1.621555189601445E9, 0.0, 2021-05-20 19:59:49.601
79.0, 22217.142250197205, 0.0, 0.0, 0.0, 0.0, 0.0, 0.0, 0.0, 0.022, -0.04, 1.024, 192.0, 0.0, 0.0, 0.0, 0.0, 0.0, 0.0, 0.0, 0.0, 0.0, 1.621555189601455E9, 0.0, 2021-05-20 19:59:49.601
80.0, 22239.58340163033, 0.0, 0.0, 0.0, 0.0, 0.0, 0.0, 0.0, 0.022, -0.04, 1.024, 192.0, 0.0, 0.0, 0.0, 0.0, 0.0, 0.0, 0.0, 0.0, 0.0, 1.621555189609399E9, 0.0, 2021-05-20 19:59:49.609
81.0, 22288.399611520723, 0.0, 0.0, 0.0, 0.0, 0.0, 0.0, 0.0, 0.022, -0.04, 1.022, 192.0, 0.0, 176.0, 254.0, 192.0, 31.0, 240.0, 0.0, 0.0, 0.0, 1.621555189609408E9, 0.0, 2021-05-20 19:59:49.609
82.0, 22375.392600940777, 0.0, 0.0, 0.0, 0.0, 0.0, 0.0, 0.0, 0.022, -0.04, 1.022, 192.0, 0.0, 0.0, 0.0, 0.0, 0.0, 0.0, 0.0, 0.0, 0.0, 1.621555189615913E9, 0.0, 2021-05-20 19:59:49.615
83.0, 22173.310479320346, 0.0, 0.0, 0.0, 0.0, 0.0, 0.0, 0.0, 0.022, -0.04, 1.022, 192.0, 0.0, 0.0, 0.0, 0.0, 0.0, 0.0, 0.0, 0.0, 0.0, 1.621555189615922E9, 0.0, 2021-05-20 19:59:49.615
84.0, 22119.95686530553, 0.0, 0.0, 0.0, 0.0, 0.0, 0.0, 0.0, 0.022, -0.04, 1.022, 192.0, 0.0, 0.0, 0.0, 0.0, 0.0, 0.0, 0.0, 0.0, 0.0, 1.621555189623037E9, 0.0, 2021-05-20 19:59:49.623
85.0, 22333.483080087077, 0.0, 0.0, 0.0, 0.0, 0.0, 0.0, 0.0, 0.022, -0.04, 1.022, 192.0, 0.0, 0.0, 0.0, 0.0, 0.0, 0.0, 0.0, 0.0, 0.0, 1.621555189623045E9, 0.0, 2021-05-20 19:59:49.623
86.0, 22428.835621933416, 0.0, 0.0, 0.0, 0.0, 0.0, 0.0, 0.0, 0.022, -0.04, 1.022, 192.0, 0.0, 0.0, 0.0, 0.0, 0.0, 0.0, 0.0, 0.0, 0.0, 1.621555189631105E9, 0.0, 2021-05-20 19:59:49.631
87.0, 22261.085779796336, 0.0, 0.0, 0.0, 0.0, 0.0, 0.0, 0.0, 0.022, -0.04, 1.022, 192.0, 0.0, 0.0, 0.0, 0.0, 0.0, 0.0, 0.0, 0.0, 0.0, 1.62155518963896E9, 0.0, 2021-05-20 19:59:49.638
88.0, 22165.66618271663, 0.0, 0.0, 0.0, 0.0, 0.0, 0.0, 0.0, 0.022, -0.04, 1.022, 192.0, 0.0, 0.0, 0.0, 0.0, 0.0, 0.0, 0.0, 0.0, 0.0, 1.621555189638967E9, 0.0, 2021-05-20 19:59:49.638
89.0, 22346.670609315708, 0.0, 0.0, 0.0, 0.0, 0.0, 0.0, 0.0, 0.022, -0.04, 1.022, 192.0, 0.0, 0.0, 0.0, 0.0, 0.0, 0.0, 0.0, 0.0, 0.0, 1.621555189645592E9, 0.0, 2021-05-20 19:59:49.645
90.0, 22472.39917187681, 0.0, 0.0, 0.0, 0.0, 0.0, 0.0, 0.0, 0.026000000000000002, -0.044, 1.02, 192.0, 0.0, 208.0, 254.0, 160.0, 31.0, 224.0, 0.0, 0.0, 0.0, 1.6215551896456E9, 0.0, 2021-05-20 19:59:49.645
91.0, 22335.89706848825, 0.0, 0.0, 0.0, 0.0, 0.0, 0.0, 0.0, 0.026000000000000002, -0.044, 1.02, 192.0, 0.0, 0.0, 0.0, 0.0, 0.0, 0.0, 0.0, 0.0, 0.0, 1.621555189654065E9, 0.0, 2021-05-20 19:59:49.654
92.0, 22209.900284993684, 0.0, 0.0, 0.0, 0.0, 0.0, 0.0, 0.0, 0.026000000000000002, -0.044, 1.02, 192.0, 0.0, 0.0, 0.0, 0.0, 0.0, 0.0, 0.0, 0.0, 0.0, 1.621555189654074E9, 0.0, 2021-05-20 19:59:49.654
93.0, 22416.855086905372, 0.0, 0.0, 0.0, 0.0, 0.0, 0.0, 0.0, 0.026000000000000002, -0.044, 1.02, 192.0, 0.0, 0.0, 0.0, 0.0, 0.0, 0.0, 0.0, 0.0, 0.0, 1.621555189661662E9, 0.0, 2021-05-20 19:59:49.661
94.0, 22498.997747778627, 0.0, 0.0, 0.0, 0.0, 0.0, 0.0, 0.0, 0.026000000000000002, -0.044, 1.02, 192.0, 0.0, 0.0, 0.0, 0.0, 0.0, 0.0, 0.0, 0.0, 0.0, 1.621555189661673E9, 0.0, 2021-05-20 19:59:49.661
95.0, 22279.011878849495, 0.0, 0.0, 0.0, 0.0, 0.0, 0.0, 0.0, 0.026000000000000002, -0.044, 1.02, 192.0, 0.0, 0.0, 0.0, 0.0, 0.0, 0.0, 0.0, 0.0, 0.0, 1.621555189668725E9, 0.0, 2021-05-20 19:59:49.668
96.0, 22213.074232706338, 0.0, 0.0, 0.0, 0.0, 0.0, 0.0, 0.0, 0.026000000000000002, -0.044, 1.02, 192.0, 0.0, 0.0, 0.0, 0.0, 0.0, 0.0, 0.0, 0.0, 0.0, 1.621555189668737E9, 0.0, 2021-05-20 19:59:49.668
97.0, 22294.389879034745, 0.0, 0.0, 0.0, 0.0, 0.0, 0.0, 0.0, 0.026000000000000002, -0.044, 1.02, 192.0, 0.0, 0.0, 0.0, 0.0, 0.0, 0.0, 0.0, 0.0, 0.0, 1.621555189676293E9, 0.0, 2021-05-20 19:59:49.676
98.0, 22517.92967533227, 0.0, 0.0, 0.0, 0.0, 0.0, 0.0, 0.0, 0.026000000000000002, -0.044, 1.02, 192.0, 0.0, 0.0, 0.0, 0.0, 0.0, 0.0, 0.0, 0.0, 0.0, 1.621555189676303E9, 0.0, 2021-05-20 19:59:49.676
99.0, 22464.531357828542, 0.0, 0.0, 0.0, 0.0, 0.0, 0.0, 0.0, 0.026000000000000002, -0.044, 1.02, 192.0, 0.0, 0.0, 0.0, 0.0, 0.0, 0.0, 0.0, 0.0, 0.0, 1.621555189684302E9, 0.0, 2021-05-20 19:59:49.684
100.0, 22298.636710481253, 0.0, 0.0, 0.0, 0.0, 0.0, 0.0, 0.0, 0.022, -0.044, 1.026, 192.0, 0.0, 176.0, 254.0, 160.0, 32.0, 16.0, 0.0, 0.0, 0.0, 1.621555189684311E9, 0.0, 2021-05-20 19:59:49.684
101.0, 22354.225498941603, 0.0, 0.0, 0.0, 0.0, 0.0, 0.0, 0.0, 0.022, -0.044, 1.026, 192.0, 0.0, 0.0, 0.0, 0.0, 0.0, 0.0, 0.0, 0.0, 0.0, 1.621555189691238E9, 0.0, 2021-05-20 19:59:49.691
102.0, 22623.273446950134, 0.0, 0.0, 0.0, 0.0, 0.0, 0.0, 0.0, 0.022, -0.044, 1.026, 192.0, 0.0, 0.0, 0.0, 0.0, 0.0, 0.0, 0.0, 0.0, 0.0, 1.621555189700159E9, 0.0, 2021-05-20 19:59:49.700
103.0, 22501.232922224157, 0.0, 0.0, 0.0, 0.0, 0.0, 0.0, 0.0, 0.022, -0.044, 1.026, 192.0, 0.0, 0.0, 0.0, 0.0, 0.0, 0.0, 0.0, 0.0, 0.0, 1.62155518970017E9, 0.0, 2021-05-20 19:59:49.700
104.0, 22268.439503722133, 0.0, 0.0, 0.0, 0.0, 0.0, 0.0, 0.0, 0.022, -0.044, 1.026, 192.0, 0.0, 0.0, 0.0, 0.0, 0.0, 0.0, 0.0, 0.0, 0.0, 1.621555189705931E9, 0.0, 2021-05-20 19:59:49.705
105.0, 22292.64644296723, 0.0, 0.0, 0.0, 0.0, 0.0, 0.0, 0.0, 0.022, -0.044, 1.026, 192.0, 0.0, 0.0, 0.0, 0.0, 0.0, 0.0, 0.0, 0.0, 0.0, 1.621555189705943E9, 0.0, 2021-05-20 19:59:49.705
106.0, 22542.18131806628, 0.0, 0.0, 0.0, 0.0, 0.0, 0.0, 0.0, 0.022, -0.044, 1.026, 192.0, 0.0, 0.0, 0.0, 0.0, 0.0, 0.0, 0.0, 0.0, 0.0, 1.621555189713935E9, 0.0, 2021-05-20 19:59:49.713
107.0, 22551.591402481965, 0.0, 0.0, 0.0, 0.0, 0.0, 0.0, 0.0, 0.022, -0.044, 1.026, 192.0, 0.0, 0.0, 0.0, 0.0, 0.0, 0.0, 0.0, 0.0, 0.0, 1.621555189713962E9, 0.0, 2021-05-20 19:59:49.713
108.0, 22361.869795545317, 0.0, 0.0, 0.0, 0.0, 0.0, 0.0, 0.0, 0.022, -0.044, 1.026, 192.0, 0.0, 0.0, 0.0, 0.0, 0.0, 0.0, 0.0, 0.0, 0.0, 1.621555189721924E9, 0.0, 2021-05-20 19:59:49.721
109.0, 22316.853382212328, 0.0, 0.0, 0.0, 0.0, 0.0, 0.0, 0.0, 0.022, -0.044, 1.026, 192.0, 0.0, 0.0, 0.0, 0.0, 0.0, 0.0, 0.0, 0.0, 0.0, 1.621555189721933E9, 0.0, 2021-05-20 19:59:49.721
110.0, 22501.612901879897, 0.0, 0.0, 0.0, 0.0, 0.0, 0.0, 0.0, 0.022, -0.042, 1.024, 192.0, 0.0, 176.0, 254.0, 176.0, 32.0, 0.0, 0.0, 0.0, 0.0, 1.621555189728507E9, 0.0, 2021-05-20 19:59:49.728
111.0, 22592.293929135078, 0.0, 0.0, 0.0, 0.0, 0.0, 0.0, 0.0, 0.022, -0.042, 1.024, 192.0, 0.0, 0.0, 0.0, 0.0, 0.0, 0.0, 0.0, 0.0, 0.0, 1.621555189728513E9, 0.0, 2021-05-20 19:59:49.728
112.0, 22392.268168004535, 0.0, 0.0, 0.0, 0.0, 0.0, 0.0, 0.0, 0.022, -0.042, 1.024, 192.0, 0.0, 0.0, 0.0, 0.0, 0.0, 0.0, 0.0, 0.0, 0.0, 1.621555189736558E9, 0.0, 2021-05-20 19:59:49.736
113.0, 22241.729169098042, 0.0, 0.0, 0.0, 0.0, 0.0, 0.0, 0.0, 0.022, -0.042, 1.024, 192.0, 0.0, 0.0, 0.0, 0.0, 0.0, 0.0, 0.0, 0.0, 0.0, 1.621555189736565E9, 0.0, 2021-05-20 19:59:49.736
114.0, 22377.270147475025, 0.0, 0.0, 0.0, 0.0, 0.0, 0.0, 0.0, 0.022, -0.042, 1.024, 192.0, 0.0, 0.0, 0.0, 0.0, 0.0, 0.0, 0.0, 0.0, 0.0, 1.621555189744667E9, 0.0, 2021-05-20 19:59:49.744
115.0, 22482.278642926056, 0.0, 0.0, 0.0, 0.0, 0.0, 0.0, 0.0, 0.022, -0.042, 1.024, 192.0, 0.0, 0.0, 0.0, 0.0, 0.0, 0.0, 0.0, 0.0, 0.0, 1.621555189744679E9, 0.0, 2021-05-20 19:59:49.744
