%OpenBCI Raw EEG Data
%Number of channels = 8
%Sample Rate = 250 Hz
%Board = OpenBCI_GUI$BoardCytonSerial
Sample Index, EXG Channel 0, EXG Channel 1, EXG Channel 2, EXG Channel 3, EXG Channel 4, EXG Channel 5, EXG Channel 6, EXG Channel 7, Accel Channel 0, Accel Channel 1, Accel Channel 2, Other, Other, Other, Other, Other, Other, Other, Analog Channel 0, Analog Channel 1, Analog Channel 2, Timestamp, Other, Timestamp (Formatted)
151.0, -10445.506625831918, 882.1786501620592, 0.0, 0.0, 0.0, 0.0, 0.0, 0.0, 0.0, 0.0, 0.0, 192.0, 0.0, 0.0, 0.0, 0.0, 0.0, 0.0, 0.0, 0.0, 0.0, 1.62360471826629E9, 0.0, 2021-06-13 13:18:38.266
152.0, -10367.454334193986, 875.6519407811095, 0.0, 0.0, 0.0, 0.0, 0.0, 0.0, 0.0, 0.0, 0.0, 192.0, 0.0, 0.0, 0.0, 0.0, 0.0, 0.0, 0.0, 0.0, 0.0, 1.623604718266294E9, 0.0, 2021-06-13 13:18:38.266
153.0, -10174.379965589043, 886.8725164976736, 0.0, 0.0, 0.0, 0.0, 0.0, 0.0, 0.0, 0.0, 0.0, 192.0, 0.0, 0.0, 0.0, 0.0, 0.0, 0.0, 0.0, 0.0, 0.0, 1.623604718266296E9, 0.0, 2021-06-13 13:18:38.266
154.0, -10185.846410494616, 884.927914730062, 0.0, 0.0, 0.0, 0.0, 0.0, 0.0, 0.0, 0.0, 0.0, 192.0, 0.0, 0.0, 0.0, 0.0, 0.0, 0.0, 0.0, 0.0, 0.0, 1.623604718266298E9, 0.0, 2021-06-13 13:18:38.266
0.0, 0.0, 0.0, 0.0, 0.0, 0.0, 0.0, 0.0, 0.0, 0.0, 0.0, 0.0, 192.0, 0.0, 0.0, 0.0, 0.0, 0.0, 0.0, 0.0, 0.0, 0.0, 1.623604718350016E9, 0.0, 2021-06-13 13:18:38.350
1.0, -8758.218140389698, -3719.173815151908, 0.0, 0.0, 0.0, 0.0, 0.0, 0.0, 0.02, -0.04, 1.026, 192.0, 0.0, 160.0, 254.0, 192.0, 32.0, 16.0, 0.0, 0.0, 0.0, 1.623604718358189E9, 0.0, 2021-06-13 13:18:38.358
2.0, -8929.879537806457, -3736.6752310604134, 0.0, 0.0, 0.0, 0.0, 0.0, 0.0, 0.02, -0.04, 1.026, 192.0, 0.0, 0.0, 0.0, 0.0, 0.0, 0.0, 0.0, 0.0, 0.0, 1.623604718364335E9, 0.0, 2021-06-13 13:18:38.364
3.0, -8917.250802189208, -3734.6188705705254, 0.0, 0.0, 0.0, 0.0, 0.0, 0.0, 0.02, -0.04, 1.026, 192.0, 0.0, 0.0, 0.0, 0.0, 0.0, 0.0, 0.0, 0.0, 0.0, 1.623604718364343E9, 0.0, 2021-06-13 13:18:38.364
4.0, -8748.785704229558, -3719.754960507746, 0.0, 0.0, 0.0, 0.0, 0.0, 0.0, 0.02, -0.04, 1.026, 192.0, 0.0, 0.0, 0.0, 0.0, 0.0, 0.0, 0.0, 0.0, 0.0, 1.62360471837215E9, 0.0, 2021-06-13 13:18:38.372
5.0, -8744.382410571863, -3720.984306452788, 0.0, 0.0, 0.0, 0.0, 0.0, 0.0, 0.02, -0.04, 1.026, 192.0, 0.0, 0.0, 0.0, 0.0, 0.0, 0.0, 0.0, 0.0, 0.0, 1.623604718372158E9, 0.0, 2021-06-13 13:18:38.372
6.0, -8925.073912748565, -3745.2806526757067, 0.0, 0.0, 0.0, 0.0, 0.0, 0.0, 0.02, -0.04, 1.026, 192.0, 0.0, 0.0, 0.0, 0.0, 0.0, 0.0, 0.0, 0.0, 0.0, 1.623604718380258E9, 0.0, 2021-06-13 13:18:38.380
7.0, -8971.520837726694, -3754.109591735553, 0.0, 0.0, 0.0, 0.0, 0.0, 0.0, 0.02, -0.04, 1.026, 192.0, 0.0, 0.0, 0.0, 0.0, 0.0, 0.0, 0.0, 0.0, 0.0, 1.623604718380266E9, 0.0, 2021-06-13 13:18:38.380
8.0, -8802.474594411206, -3748.9239870219217, 0.0, 0.0, 0.0, 0.0, 0.0, 0.0, 0.022, -0.044, 1.028, 192.0, 0.0, 176.0, 254.0, 160.0, 32.0, 32.0, 0.0, 0.0, 0.0, 1.623604718386799E9, 0.0, 2021-06-13 13:18:38.386
9.0, -8723.639991717338, -3749.6168911000364, 0.0, 0.0, 0.0, 0.0, 0.0, 0.0, 0.022, -0.044, 1.028, 192.0, 0.0, 0.0, 0.0, 0.0, 0.0, 0.0, 0.0, 0.0, 0.0, 1.623604718386807E9, 0.0, 2021-06-13 13:18:38.386
10.0, -8865.931196919822, -3752.947301023877, 0.0, 0.0, 0.0, 0.0, 0.0, 0.0, 0.022, -0.044, 1.028, 192.0, 0.0, 0.0, 0.0, 0.0, 0.0, 0.0, 0.0, 0.0, 0.0, 1.623604718394978E9, 0.0, 2021-06-13 13:18:38.394
11.0, -8933.969907041777, -3762.2679784617403, 0.0, 0.0, 0.0, 0.0, 0.0, 0.0, 0.022, -0.044, 1.028, 192.0, 0.0, 0.0, 0.0, 0.0, 0.0, 0.0, 0.0, 0.0, 0.0, 1.623604718394986E9, 0.0, 2021-06-13 13:18:38.394
12.0, -8790.69522508326, -3751.7403068232907, 0.0, 0.0, 0.0, 0.0, 0.0, 0.0, 0.022, -0.044, 1.028, 192.0, 0.0, 0.0, 0.0, 0.0, 0.0, 0.0, 0.0, 0.0, 0.0, 1.62360471840285E9, 0.0, 2021-06-13 13:18:38.402
13.0, -8700.394177483819, -3744.0513067306647, 0.0, 0.0, 0.0, 0.0, 0.0, 0.0, 0.022, -0.044, 1.028, 192.0, 0.0, 0.0, 0.0, 0.0, 0.0, 0.0, 0.0, 0.0, 0.0, 1.623604718402857E9, 0.0, 2021-06-13 13:18:38.402
14.0, -8832.560042448049, -3761.0386325166983, 0.0, 0.0, 0.0, 0.0, 0.0, 0.0, 0.022, -0.044, 1.028, 192.0, 0.0, 0.0, 0.0, 0.0, 0.0, 0.0, 0.0, 0.0, 0.0, 1.623604718409459E9, 0.0, 2021-06-13 13:18:38.409
15.0, -8943.469398435283, -3779.2553042477734, 0.0, 0.0, 0.0, 0.0, 0.0, 0.0, 0.022, -0.044, 1.028, 192.0, 0.0, 0.0, 0.0, 0.0, 0.0, 0.0, 0.0, 0.0, 0.0, 1.623604718409466E9, 0.0, 2021-06-13 13:18:38.409
16.0, -8832.358876747952, -3766.760679097257, 0.0, 0.0, 0.0, 0.0, 0.0, 0.0, 0.022, -0.044, 1.028, 192.0, 0.0, 0.0, 0.0, 0.0, 0.0, 0.0, 0.0, 0.0, 0.0, 1.623604718416554E9, 0.0, 2021-06-13 13:18:38.416
17.0, -8693.62159891386, -3749.8627602890447, 0.0, 0.0, 0.0, 0.0, 0.0, 0.0, 0.022, -0.044, 1.028, 192.0, 0.0, 0.0, 0.0, 0.0, 0.0, 0.0, 0.0, 0.0, 0.0, 1.623604718424575E9, 0.0, 2021-06-13 13:18:38.424
18.0, -8778.424117377295, -3756.143600480986, 0.0, 0.0, 0.0, 0.0, 0.0, 0.0, 0.016, -0.04, 1.032, 192.0, 0.0, 128.0, 254.0, 192.0, 32.0, 64.0, 0.0, 0.0, 0.0, 1.623604718424583E9, 0.0, 2021-06-13 13:18:38.424
19.0, -8898.877668246945, -3761.887998806, 0.0, 0.0, 0.0, 0.0, 0.0, 0.0, 0.016, -0.04, 1.032, 192.0, 0.0, 0.0, 0.0, 0.0, 0.0, 0.0, 0.0, 0.0, 0.0, 1.623604718432567E9, 0.0, 2021-06-13 13:18:38.432
20.0, -8813.091673027477, -3758.98227202681, 0.0, 0.0, 0.0, 0.0, 0.0, 0.0, 0.016, -0.04, 1.032, 192.0, 0.0, 0.0, 0.0, 0.0, 0.0, 0.0, 0.0, 0.0, 0.0, 1.623604718432576E9, 0.0, 2021-06-13 13:18:38.432
21.0, -8667.157133478777, -3747.3817166545055, 0.0, 0.0, 0.0, 0.0, 0.0, 0.0, 0.016, -0.04, 1.032, 192.0, 0.0, 0.0, 0.0, 0.0, 0.0, 0.0, 0.0, 0.0, 0.0, 1.623604718439155E9, 0.0, 2021-06-13 13:18:38.439
22.0, -8728.91500340879, -3752.343803923584, 0.0, 0.0, 0.0, 0.0, 0.0, 0.0, 0.016, -0.04, 1.032, 192.0, 0.0, 0.0, 0.0, 0.0, 0.0, 0.0, 0.0, 0.0, 0.0, 1.623604718439163E9, 0.0, 2021-06-13 13:18:38.439
23.0, -8877.41999356985, -3768.7946878426897, 0.0, 0.0, 0.0, 0.0, 0.0, 0.0, 0.016, -0.04, 1.032, 192.0, 0.0, 0.0, 0.0, 0.0, 0.0, 0.0, 0.0, 0.0, 0.0, 1.62360471844704E9, 0.0, 2021-06-13 13:18:38.447
24.0, -8833.65527792636, -3762.044461017187, 0.0, 0.0, 0.0, 0.0, 0.0, 0.0, 0.016, -0.04, 1.032, 192.0, 0.0, 0.0, 0.0, 0.0, 0.0, 0.0, 0.0, 0.0, 0.0, 1.623604718447047E9, 0.0, 2021-06-13 13:18:38.447
25.0, -8677.774212095048, -3759.272844704729, 0.0, 0.0, 0.0, 0.0, 0.0, 0.0, 0.016, -0.04, 1.032, 192.0, 0.0, 0.0, 0.0, 0.0, 0.0, 0.0, 0.0, 0.0, 0.0, 1.623604718455054E9, 0.0, 2021-06-13 13:18:38.455
26.0, -8700.952971095201, -3773.7120716228574, 0.0, 0.0, 0.0, 0.0, 0.0, 0.0, 0.016, -0.04, 1.032, 192.0, 0.0, 0.0, 0.0, 0.0, 0.0, 0.0, 0.0, 0.0, 0.0, 1.623604718455061E9, 0.0, 2021-06-13 13:18:38.455
27.0, -8858.488066016205, -3779.2553042477734, 0.0, 0.0, 0.0, 0.0, 0.0, 0.0, 0.018000000000000002, -0.04, 1.028, 192.0, 0.0, 144.0, 254.0, 192.0, 32.0, 32.0, 0.0, 0.0, 0.0, 1.623604718462167E9, 0.0, 2021-06-13 13:18:38.462
28.0, -8853.66008921386, -3768.2582459757623, 0.0, 0.0, 0.0, 0.0, 0.0, 0.0, 0.018000000000000002, -0.04, 1.028, 192.0, 0.0, 0.0, 0.0, 0.0, 0.0, 0.0, 0.0, 0.0, 0.0, 1.623604718462172E9, 0.0, 2021-06-13 13:18:38.462
29.0, -8692.615770413371, -3751.717955078835, 0.0, 0.0, 0.0, 0.0, 0.0, 0.0, 0.018000000000000002, -0.04, 1.028, 192.0, 0.0, 0.0, 0.0, 0.0, 0.0, 0.0, 0.0, 0.0, 0.0, 1.623604718469716E9, 0.0, 2021-06-13 13:18:38.469
30.0, -8673.840305070915, -3752.008527756754, 0.0, 0.0, 0.0, 0.0, 0.0, 0.0, 0.018000000000000002, -0.04, 1.028, 192.0, 0.0, 0.0, 0.0, 0.0, 0.0, 0.0, 0.0, 0.0, 0.0, 1.62360471846974E9, 0.0, 2021-06-13 13:18:38.469
31.0, -8833.118836059431, -3772.0580425331646, 0.0, 0.0, 0.0, 0.0, 0.0, 0.0, 0.018000000000000002, -0.04, 1.028, 192.0, 0.0, 0.0, 0.0, 0.0, 0.0, 0.0, 0.0, 0.0, 0.0, 1.623604718477039E9, 0.0, 2021-06-13 13:18:38.477
32.0, -8871.697946989292, -3791.168784042452, 0.0, 0.0, 0.0, 0.0, 0.0, 0.0, 0.018000000000000002, -0.04, 1.028, 192.0, 0.0, 0.0, 0.0, 0.0, 0.0, 0.0, 0.0, 0.0, 0.0, 1.623604718484811E9, 0.0, 2021-06-13 13:18:38.484
33.0, -8720.130767837854, -3775.0978797790863, 0.0, 0.0, 0.0, 0.0, 0.0, 0.0, 0.018000000000000002, -0.04, 1.028, 192.0, 0.0, 0.0, 0.0, 0.0, 0.0, 0.0, 0.0, 0.0, 0.0, 1.623604718484819E9, 0.0, 2021-06-13 13:18:38.484
34.0, -8659.110505474866, -3761.1280394945193, 0.0, 0.0, 0.0, 0.0, 0.0, 0.0, 0.018000000000000002, -0.04, 1.028, 192.0, 0.0, 0.0, 0.0, 0.0, 0.0, 0.0, 0.0, 0.0, 0.0, 1.623604718491878E9, 0.0, 2021-06-13 13:18:38.491
35.0, -8809.31422821453, -3779.434118203416, 0.0, 0.0, 0.0, 0.0, 0.0, 0.0, 0.018000000000000002, -0.04, 1.028, 192.0, 0.0, 0.0, 0.0, 0.0, 0.0, 0.0, 0.0, 0.0, 0.0, 1.623604718491886E9, 0.0, 2021-06-13 13:18:38.491
36.0, -8894.116746677964, -3788.7324438968235, 0.0, 0.0, 0.0, 0.0, 0.0, 0.0, 0.018000000000000002, -0.04, 1.028, 192.0, 0.0, 0.0, 0.0, 0.0, 0.0, 0.0, 0.0, 0.0, 0.0, 1.623604718499354E9, 0.0, 2021-06-13 13:18:38.499
37.0, -8787.677739581794, -3778.65180714748, 0.0, 0.0, 0.0, 0.0, 0.0, 0.0, 0.016, -0.036000000000000004, 1.026, 192.0, 0.0, 128.0, 254.0, 224.0, 32.0, 16.0, 0.0, 0.0, 0.0, 1.623604718499379E9, 0.0, 2021-06-13 13:18:38.499
38.0, -8736.738113968147, -3774.852010590078, 0.0, 0.0, 0.0, 0.0, 0.0, 0.0, 0.016, -0.036000000000000004, 1.026, 192.0, 0.0, 0.0, 0.0, 0.0, 0.0, 0.0, 0.0, 0.0, 0.0, 1.623604718507326E9, 0.0, 2021-06-13 13:18:38.507
39.0, -8890.875743731945, -3781.669292648947, 0.0, 0.0, 0.0, 0.0, 0.0, 0.0, 0.016, -0.036000000000000004, 1.026, 192.0, 0.0, 0.0, 0.0, 0.0, 0.0, 0.0, 0.0, 0.0, 0.0, 1.623604718507332E9, 0.0, 2021-06-13 13:18:38.507
40.0, -9089.493344961804, -3793.9627520993654, 0.0, 0.0, 0.0, 0.0, 0.0, 0.0, 0.016, -0.036000000000000004, 1.026, 192.0, 0.0, 0.0, 0.0, 0.0, 0.0, 0.0, 0.0, 0.0, 0.0, 1.623604718514638E9, 0.0, 2021-06-13 13:18:38.514
41.0, -9136.700229251413, -3785.1338130395193, 0.0, 0.0, 0.0, 0.0, 0.0, 0.0, 0.016, -0.036000000000000004, 1.026, 192.0, 0.0, 0.0, 0.0, 0.0, 0.0, 0.0, 0.0, 0.0, 0.0, 1.623604718514645E9, 0.0, 2021-06-13 13:18:38.514
42.0, -9183.303616440728, -3771.275731477229, 0.0, 0.0, 0.0, 0.0, 0.0, 0.0, 0.016, -0.036000000000000004, 1.026, 192.0, 0.0, 0.0, 0.0, 0.0, 0.0, 0.0, 0.0, 0.0, 0.0, 1.623604718521951E9, 0.0, 2021-06-13 13:18:38.521
43.0, -9527.051094418895, -3773.980292556321, 0.0, 0.0, 0.0, 0.0, 0.0, 0.0, 0.016, -0.036000000000000004, 1.026, 192.0, 0.0, 0.0, 0.0, 0.0, 0.0, 0.0, 0.0, 0.0, 0.0, 1.623604718521957E9, 0.0, 2021-06-13 13:18:38.521
44.0, -10008.440614752844, -3777.489516435804, 0.0, 0.0, 0.0, 0.0, 0.0, 0.0, 0.016, -0.036000000000000004, 1.026, 192.0, 0.0, 0.0, 0.0, 0.0, 0.0, 0.0, 0.0, 0.0, 0.0, 1.623604718529989E9, 0.0, 2021-06-13 13:18:38.529
45.0, -10155.872721180049, -3778.137717025008, 0.0, 0.0, 0.0, 0.0, 0.0, 0.0, 0.016, -0.036000000000000004, 1.026, 192.0, 0.0, 0.0, 0.0, 0.0, 0.0, 0.0, 0.0, 0.0, 0.0, 1.623604718529997E9, 0.0, 2021-06-13 13:18:38.529
46.0, -10019.996466636238, -3776.3048739796727, 0.0, 0.0, 0.0, 0.0, 0.0, 0.0, 0.016, -0.036000000000000004, 1.026, 192.0, 0.0, 0.0, 0.0, 0.0, 0.0, 0.0, 0.0, 0.0, 0.0, 1.623604718537167E9, 0.0, 2021-06-13 13:18:38.537
47.0, -9866.439982228278, -3786.9890078293097, 0.0, 0.0, 0.0, 0.0, 0.0, 0.0, 0.018000000000000002, -0.034, 1.028, 192.0, 0.0, 144.0, 254.0, 240.0, 32.0, 32.0, 0.0, 0.0, 0.0, 1.62360471854432E9, 0.0, 2021-06-13 13:18:38.544
48.0, -9793.50624007061, -3807.7984819172007, 0.0, 0.0, 0.0, 0.0, 0.0, 0.0, 0.018000000000000002, -0.034, 1.028, 192.0, 0.0, 0.0, 0.0, 0.0, 0.0, 0.0, 0.0, 0.0, 0.0, 1.623604718544327E9, 0.0, 2021-06-13 13:18:38.544
49.0, -9413.213659908017, -3812.4029412749937, 0.0, 0.0, 0.0, 0.0, 0.0, 0.0, 0.018000000000000002, -0.034, 1.028, 192.0, 0.0, 0.0, 0.0, 0.0, 0.0, 0.0, 0.0, 0.0, 0.0, 1.623604718551722E9, 0.0, 2021-06-13 13:18:38.551
50.0, -8925.632706359947, -3788.6430369190025, 0.0, 0.0, 0.0, 0.0, 0.0, 0.0, 0.018000000000000002, -0.034, 1.028, 192.0, 0.0, 0.0, 0.0, 0.0, 0.0, 0.0, 0.0, 0.0, 0.0, 1.623604718551728E9, 0.0, 2021-06-13 13:18:38.551
51.0, -8816.511489929138, -3781.691644393402, 0.0, 0.0, 0.0, 0.0, 0.0, 0.0, 0.018000000000000002, -0.034, 1.028, 192.0, 0.0, 0.0, 0.0, 0.0, 0.0, 0.0, 0.0, 0.0, 0.0, 1.623604718559682E9, 0.0, 2021-06-13 13:18:38.559
52.0, -8951.873654350478, -3794.700359666391, 0.0, 0.0, 0.0, 0.0, 0.0, 0.0, 0.018000000000000002, -0.034, 1.028, 192.0, 0.0, 0.0, 0.0, 0.0, 0.0, 0.0, 0.0, 0.0, 0.0, 1.623604718559689E9, 0.0, 2021-06-13 13:18:38.559
53.0, -8995.571314760604, -3791.4817084648266, 0.0, 0.0, 0.0, 0.0, 0.0, 0.0, 0.018000000000000002, -0.034, 1.028, 192.0, 0.0, 0.0, 0.0, 0.0, 0.0, 0.0, 0.0, 0.0, 0.0, 1.623604718567851E9, 0.0, 2021-06-13 13:18:38.567
54.0, -8851.715487446249, -3778.1600687694636, 0.0, 0.0, 0.0, 0.0, 0.0, 0.0, 0.018000000000000002, -0.034, 1.028, 192.0, 0.0, 0.0, 0.0, 0.0, 0.0, 0.0, 0.0, 0.0, 0.0, 1.623604718567859E9, 0.0, 2021-06-13 13:18:38.567
55.0, -8827.732065645703, -3784.1279845390304, 0.0, 0.0, 0.0, 0.0, 0.0, 0.0, 0.018000000000000002, -0.034, 1.028, 192.0, 0.0, 0.0, 0.0, 0.0, 0.0, 0.0, 0.0, 0.0, 0.0, 1.623604718574367E9, 0.0, 2021-06-13 13:18:38.574
56.0, -8979.612169219514, -3808.4466825064046, 0.0, 0.0, 0.0, 0.0, 0.0, 0.0, 0.018000000000000002, -0.034, 1.028, 192.0, 0.0, 0.0, 0.0, 0.0, 0.0, 0.0, 0.0, 0.0, 0.0, 1.623604718574373E9, 0.0, 2021-06-13 13:18:38.574
57.0, -9013.385655091484, -3825.076380381153, 0.0, 0.0, 0.0, 0.0, 0.0, 0.0, 0.018000000000000002, -0.03, 1.03, 192.0, 0.0, 144.0, 255.0, 16.0, 32.0, 48.0, 0.0, 0.0, 0.0, 1.623604718582288E9, 0.0, 2021-06-13 13:18:38.582
58.0, -8850.754362434669, -3815.107502354086, 0.0, 0.0, 0.0, 0.0, 0.0, 0.0, 0.018000000000000002, -0.03, 1.03, 192.0, 0.0, 0.0, 0.0, 0.0, 0.0, 0.0, 0.0, 0.0, 0.0, 1.623604718582306E9, 0.0, 2021-06-13 13:18:38.582
59.0, -8774.669024308805, -3784.753833383779, 0.0, 0.0, 0.0, 0.0, 0.0, 0.0, 0.018000000000000002, -0.03, 1.03, 192.0, 0.0, 0.0, 0.0, 0.0, 0.0, 0.0, 0.0, 0.0, 0.0, 1.623604718590294E9, 0.0, 2021-06-13 13:18:38.590
60.0, -8916.982581255745, -3794.141566055008, 0.0, 0.0, 0.0, 0.0, 0.0, 0.0, 0.018000000000000002, -0.03, 1.03, 192.0, 0.0, 0.0, 0.0, 0.0, 0.0, 0.0, 0.0, 0.0, 0.0, 1.6236047185903E9, 0.0, 2021-06-13 13:18:38.590
61.0, -9004.422605564905, -3808.3125720396724, 0.0, 0.0, 0.0, 0.0, 0.0, 0.0, 0.018000000000000002, -0.03, 1.03, 192.0, 0.0, 0.0, 0.0, 0.0, 0.0, 0.0, 0.0, 0.0, 0.0, 1.623604718597434E9, 0.0, 2021-06-13 13:18:38.597
62.0, -8875.47539180224, -3799.595391702103, 0.0, 0.0, 0.0, 0.0, 0.0, 0.0, 0.018000000000000002, -0.03, 1.03, 192.0, 0.0, 0.0, 0.0, 0.0, 0.0, 0.0, 0.0, 0.0, 0.0, 1.623604718597442E9, 0.0, 2021-06-13 13:18:38.597
63.0, -8769.170495172799, -3796.1532230559856, 0.0, 0.0, 0.0, 0.0, 0.0, 0.0, 0.018000000000000002, -0.03, 1.03, 192.0, 0.0, 0.0, 0.0, 0.0, 0.0, 0.0, 0.0, 0.0, 0.0, 1.623604718604001E9, 0.0, 2021-06-13 13:18:38.604
64.0, -8891.56864781006, -3807.5973162171026, 0.0, 0.0, 0.0, 0.0, 0.0, 0.0, 0.018000000000000002, -0.03, 1.03, 192.0, 0.0, 0.0, 0.0, 0.0, 0.0, 0.0, 0.0, 0.0, 0.0, 1.623604718611974E9, 0.0, 2021-06-13 13:18:38.611
65.0, -9013.698579513857, -3815.0180953762647, 0.0, 0.0, 0.0, 0.0, 0.0, 0.0, 0.018000000000000002, -0.03, 1.03, 192.0, 0.0, 0.0, 0.0, 0.0, 0.0, 0.0, 0.0, 0.0, 0.0, 1.623604718611982E9, 0.0, 2021-06-13 13:18:38.611
66.0, -8915.23914518823, -3805.5633074716698, 0.0, 0.0, 0.0, 0.0, 0.0, 0.0, 0.018000000000000002, -0.03, 1.03, 192.0, 0.0, 0.0, 0.0, 0.0, 0.0, 0.0, 0.0, 0.0, 0.0, 1.623604718619932E9, 0.0, 2021-06-13 13:18:38.619
67.0, -8782.290969168063, -3806.6361912055245, 0.0, 0.0, 0.0, 0.0, 0.0, 0.0, 0.018000000000000002, -0.026000000000000002, 1.028, 192.0, 0.0, 144.0, 255.0, 48.0, 32.0, 32.0, 0.0, 0.0, 0.0, 1.62360471861994E9, 0.0, 2021-06-13 13:18:38.619
68.0, -8871.407374311373, -3820.6060314900915, 0.0, 0.0, 0.0, 0.0, 0.0, 0.0, 0.018000000000000002, -0.026000000000000002, 1.028, 192.0, 0.0, 0.0, 0.0, 0.0, 0.0, 0.0, 0.0, 0.0, 0.0, 1.623604718627098E9, 0.0, 2021-06-13 13:18:38.627
69.0, -9017.274858626706, -3828.8314734496444, 0.0, 0.0, 0.0, 0.0, 0.0, 0.0, 0.018000000000000002, -0.026000000000000002, 1.028, 192.0, 0.0, 0.0, 0.0, 0.0, 0.0, 0.0, 0.0, 0.0, 0.0, 1.623604718627105E9, 0.0, 2021-06-13 13:18:38.627
70.0, -8955.71815439679, -3812.4029412749937, 0.0, 0.0, 0.0, 0.0, 0.0, 0.0, 0.018000000000000002, -0.026000000000000002, 1.028, 192.0, 0.0, 0.0, 0.0, 0.0, 0.0, 0.0, 0.0, 0.0, 0.0, 1.623604718634512E9, 0.0, 2021-06-13 13:18:38.634
71.0, -8805.112100256933, -3797.606086445581, 0.0, 0.0, 0.0, 0.0, 0.0, 0.0, 0.018000000000000002, -0.026000000000000002, 1.028, 192.0, 0.0, 0.0, 0.0, 0.0, 0.0, 0.0, 0.0, 0.0, 0.0, 1.623604718634519E9, 0.0, 2021-06-13 13:18:38.634
72.0, -8853.213054324753, -3812.7382174418235, 0.0, 0.0, 0.0, 0.0, 0.0, 0.0, 0.018000000000000002, -0.026000000000000002, 1.028, 192.0, 0.0, 0.0, 0.0, 0.0, 0.0, 0.0, 0.0, 0.0, 0.0, 1.62360471864261E9, 0.0, 2021-06-13 13:18:38.642
73.0, -9015.844346981567, -3826.462188537382, 0.0, 0.0, 0.0, 0.0, 0.0, 0.0, 0.018000000000000002, -0.026000000000000002, 1.028, 192.0, 0.0, 0.0, 0.0, 0.0, 0.0, 0.0, 0.0, 0.0, 0.0, 1.623604718642617E9, 0.0, 2021-06-13 13:18:38.642
74.0, -8996.331274072085, -3815.6662959654686, 0.0, 0.0, 0.0, 0.0, 0.0, 0.0, 0.018000000000000002, -0.026000000000000002, 1.028, 192.0, 0.0, 0.0, 0.0, 0.0, 0.0, 0.0, 0.0, 0.0, 0.0, 1.623604718650535E9, 0.0, 2021-06-13 13:18:38.650
75.0, -8835.733990160703, -3808.3125720396724, 0.0, 0.0, 0.0, 0.0, 0.0, 0.0, 0.018000000000000002, -0.026000000000000002, 1.028, 192.0, 0.0, 0.0, 0.0, 0.0, 0.0, 0.0, 0.0, 0.0, 0.0, 1.623604718650543E9, 0.0, 2021-06-13 13:18:38.650
76.0, -8838.550309962071, -3817.0521041216975, 0.0, 0.0, 0.0, 0.0, 0.0, 0.0, 0.018000000000000002, -0.026000000000000002, 1.028, 192.0, 0.0, 0.0, 0.0, 0.0, 0.0, 0.0, 0.0, 0.0, 0.0, 1.623604718657158E9, 0.0, 2021-06-13 13:18:38.657
77.0, -9007.104814899541, -3818.3261535556503, 0.0, 0.0, 0.0, 0.0, 0.0, 0.0, 0.018000000000000002, -0.03, 1.016, 192.0, 0.0, 144.0, 255.0, 16.0, 31.0, 192.0, 0.0, 0.0, 0.0, 1.623604718657166E9, 0.0, 2021-06-13 13:18:38.657
78.0, -9028.741303532279, -3805.0939208381083, 0.0, 0.0, 0.0, 0.0, 0.0, 0.0, 0.018000000000000002, -0.03, 1.016, 192.0, 0.0, 0.0, 0.0, 0.0, 0.0, 0.0, 0.0, 0.0, 0.0, 1.623604718664225E9, 0.0, 2021-06-13 13:18:38.664
79.0, -8867.89815043189, -3798.209583545874, 0.0, 0.0, 0.0, 0.0, 0.0, 0.0, 0.018000000000000002, -0.03, 1.016, 192.0, 0.0, 0.0, 0.0, 0.0, 0.0, 0.0, 0.0, 0.0, 0.0, 1.623604718672295E9, 0.0, 2021-06-13 13:18:38.672
80.0, -8827.396789478873, -3811.1288918410414, 0.0, 0.0, 0.0, 0.0, 0.0, 0.0, 0.018000000000000002, -0.03, 1.016, 192.0, 0.0, 0.0, 0.0, 0.0, 0.0, 0.0, 0.0, 0.0, 0.0, 1.623604718672302E9, 0.0, 2021-06-13 13:18:38.672
81.0, -8987.68114896788, -3831.848958951111, 0.0, 0.0, 0.0, 0.0, 0.0, 0.0, 0.018000000000000002, -0.03, 1.016, 192.0, 0.0, 0.0, 0.0, 0.0, 0.0, 0.0, 0.0, 0.0, 0.0, 1.623604718679438E9, 0.0, 2021-06-13 13:18:38.679
82.0, -9049.260204942251, -3827.915051926977, 0.0, 0.0, 0.0, 0.0, 0.0, 0.0, 0.018000000000000002, -0.03, 1.016, 192.0, 0.0, 0.0, 0.0, 0.0, 0.0, 0.0, 0.0, 0.0, 0.0, 1.623604718679447E9, 0.0, 2021-06-13 13:18:38.679
83.0, -8901.515174092672, -3823.355296058094, 0.0, 0.0, 0.0, 0.0, 0.0, 0.0, 0.018000000000000002, -0.03, 1.016, 192.0, 0.0, 0.0, 0.0, 0.0, 0.0, 0.0, 0.0, 0.0, 0.0, 1.623604718686841E9, 0.0, 2021-06-13 13:18:38.686
84.0, -8819.797196364068, -3818.728484955846, 0.0, 0.0, 0.0, 0.0, 0.0, 0.0, 0.018000000000000002, -0.03, 1.016, 192.0, 0.0, 0.0, 0.0, 0.0, 0.0, 0.0, 0.0, 0.0, 0.0, 1.623604718686848E9, 0.0, 2021-06-13 13:18:38.686
85.0, -8961.663718421903, -3831.7372002288344, 0.0, 0.0, 0.0, 0.0, 0.0, 0.0, 0.018000000000000002, -0.03, 1.016, 192.0, 0.0, 0.0, 0.0, 0.0, 0.0, 0.0, 0.0, 0.0, 0.0, 1.623604718694829E9, 0.0, 2021-06-13 13:18:38.694
86.0, -9062.090106259599, -3843.516569556781, 0.0, 0.0, 0.0, 0.0, 0.0, 0.0, 0.018000000000000002, -0.03, 1.016, 192.0, 0.0, 0.0, 0.0, 0.0, 0.0, 0.0, 0.0, 0.0, 0.0, 1.623604718694837E9, 0.0, 2021-06-13 13:18:38.694
87.0, -8939.177863499865, -3830.172578116963, 0.0, 0.0, 0.0, 0.0, 0.0, 0.0, 0.016, -0.03, 1.022, 192.0, 0.0, 128.0, 255.0, 16.0, 31.0, 240.0, 0.0, 0.0, 0.0, 1.623604718702814E9, 0.0, 2021-06-13 13:18:38.702
88.0, -8824.155786532854, -3807.4408540059158, 0.0, 0.0, 0.0, 0.0, 0.0, 0.0, 0.016, -0.03, 1.022, 192.0, 0.0, 0.0, 0.0, 0.0, 0.0, 0.0, 0.0, 0.0, 0.0, 1.623604718702821E9, 0.0, 2021-06-13 13:18:38.702
89.0, -8941.122465267475, -3827.646830993513, 0.0, 0.0, 0.0, 0.0, 0.0, 0.0, 0.016, -0.03, 1.022, 192.0, 0.0, 0.0, 0.0, 0.0, 0.0, 0.0, 0.0, 0.0, 0.0, 1.623604718709395E9, 0.0, 2021-06-13 13:18:38.709
90.0, -9072.46131568686, -3837.325136342661, 0.0, 0.0, 0.0, 0.0, 0.0, 0.0, 0.016, -0.03, 1.022, 192.0, 0.0, 0.0, 0.0, 0.0, 0.0, 0.0, 0.0, 0.0, 0.0, 1.623604718709403E9, 0.0, 2021-06-13 13:18:38.709
91.0, -8982.652006465436, -3814.168729086963, 0.0, 0.0, 0.0, 0.0, 0.0, 0.0, 0.016, -0.03, 1.022, 192.0, 0.0, 0.0, 0.0, 0.0, 0.0, 0.0, 0.0, 0.0, 0.0, 1.623604718717431E9, 0.0, 2021-06-13 13:18:38.717
92.0, -8842.819493153036, -3817.789711688723, 0.0, 0.0, 0.0, 0.0, 0.0, 0.0, 0.016, -0.03, 1.022, 192.0, 0.0, 0.0, 0.0, 0.0, 0.0, 0.0, 0.0, 0.0, 0.0, 1.623604718717438E9, 0.0, 2021-06-13 13:18:38.717
93.0, -8926.86205230499, -3841.2143398778844, 0.0, 0.0, 0.0, 0.0, 0.0, 0.0, 0.016, -0.03, 1.022, 192.0, 0.0, 0.0, 0.0, 0.0, 0.0, 0.0, 0.0, 0.0, 0.0, 1.623604718724393E9, 0.0, 2021-06-13 13:18:38.724
94.0, -9079.65857740147, -3851.786715005245, 0.0, 0.0, 0.0, 0.0, 0.0, 0.0, 0.016, -0.03, 1.022, 192.0, 0.0, 0.0, 0.0, 0.0, 0.0, 0.0, 0.0, 0.0, 0.0, 1.623604718732432E9, 0.0, 2021-06-13 13:18:38.732
95.0, -9027.154329675952, -3832.0501246512085, 0.0, 0.0, 0.0, 0.0, 0.0, 0.0, 0.016, -0.03, 1.022, 192.0, 0.0, 0.0, 0.0, 0.0, 0.0, 0.0, 0.0, 0.0, 0.0, 1.623604718732441E9, 0.0, 2021-06-13 13:18:38.732
96.0, -8871.630891755925, -3817.163862843974, 0.0, 0.0, 0.0, 0.0, 0.0, 0.0, 0.016, -0.03, 1.022, 192.0, 0.0, 128.0, 255.0, 16.0, 31.0, 240.0, 0.0, 0.0, 0.0, 1.623604718739106E9, 0.0, 2021-06-13 13:18:38.739
97.0, -8914.926220765856, -3827.646830993513, 0.0, 0.0, 0.0, 0.0, 0.0, 0.0, 0.016, -0.03, 1.022, 192.0, 0.0, 0.0, 0.0, 0.0, 0.0, 0.0, 0.0, 0.0, 0.0, 1.623604718739114E9, 0.0, 2021-06-13 13:18:38.739
98.0, -9084.844182115101, -3835.5146450417815, 0.0, 0.0, 0.0, 0.0, 0.0, 0.0, 0.016, -0.03, 1.022, 192.0, 0.0, 0.0, 0.0, 0.0, 0.0, 0.0, 0.0, 0.0, 0.0, 1.623604718747077E9, 0.0, 2021-06-13 13:18:38.747
99.0, -9077.490458189304, -3830.3513920726054, 0.0, 0.0, 0.0, 0.0, 0.0, 0.0, 0.016, -0.03, 1.022, 192.0, 0.0, 0.0, 0.0, 0.0, 0.0, 0.0, 0.0, 0.0, 0.0, 1.623604718747084E9, 0.0, 2021-06-13 13:18:38.747
100.0, -8916.177918455352, -3822.818854191167, 0.0, 0.0, 0.0, 0.0, 0.0, 0.0, 0.016, -0.03, 1.022, 192.0, 0.0, 0.0, 0.0, 0.0, 0.0, 0.0, 0.0, 0.0, 0.0, 1.623604718755001E9, 0.0, 2021-06-13 13:18:38.755
101.0, -8911.841680031024, -3827.602127504603, 0.0, 0.0, 0.0, 0.0, 0.0, 0.0, 0.016, -0.03, 1.022, 192.0, 0.0, 0.0, 0.0, 0.0, 0.0, 0.0, 0.0, 0.0, 0.0, 1.623604718755007E9, 0.0, 2021-06-13 13:18:38.755
102.0, -9087.235818771818, -3847.875159725566, 0.0, 0.0, 0.0, 0.0, 0.0, 0.0, 0.016, -0.03, 1.022, 192.0, 0.0, 0.0, 0.0, 0.0, 0.0, 0.0, 0.0, 0.0, 0.0, 1.623604718762167E9, 0.0, 2021-06-13 13:18:38.762
103.0, -9119.981124398842, -3873.825535038178, 0.0, 0.0, 0.0, 0.0, 0.0, 0.0, 0.016, -0.03, 1.022, 192.0, 0.0, 0.0, 0.0, 0.0, 0.0, 0.0, 0.0, 0.0, 0.0, 1.623604718762172E9, 0.0, 2021-06-13 13:18:38.762
104.0, -8961.641366677448, -3866.1812384344626, 0.0, 0.0, 0.0, 0.0, 0.0, 0.0, 0.016, -0.03, 1.022, 192.0, 0.0, 0.0, 0.0, 0.0, 0.0, 0.0, 0.0, 0.0, 0.0, 1.623604718769769E9, 0.0, 2021-06-13 13:18:38.769
105.0, -8916.982581255745, -3830.552557772703, 0.0, 0.0, 0.0, 0.0, 0.0, 0.0, 0.016, -0.03, 1.022, 192.0, 0.0, 0.0, 0.0, 0.0, 0.0, 0.0, 0.0, 0.0, 0.0, 1.623604718769777E9, 0.0, 2021-06-13 13:18:38.769
106.0, -9078.965673323355, -3835.067610152675, 0.0, 0.0, 0.0, 0.0, 0.0, 0.0, 0.018000000000000002, -0.03, 1.024, 192.0, 0.0, 144.0, 255.0, 16.0, 32.0, 0.0, 0.0, 0.0, 0.0, 1.623604718777761E9, 0.0, 2021-06-13 13:18:38.777
107.0, -9147.272604378773, -3848.3221946146723, 0.0, 0.0, 0.0, 0.0, 0.0, 0.0, 0.018000000000000002, -0.03, 1.024, 192.0, 0.0, 0.0, 0.0, 0.0, 0.0, 0.0, 0.0, 0.0, 0.0, 1.623604718777796E9, 0.0, 2021-06-13 13:18:38.777
108.0, -9005.204916620842, -3833.1230083850633, 0.0, 0.0, 0.0, 0.0, 0.0, 0.0, 0.018000000000000002, -0.03, 1.024, 192.0, 0.0, 0.0, 0.0, 0.0, 0.0, 0.0, 0.0, 0.0, 0.0, 1.623604718784709E9, 0.0, 2021-06-13 13:18:38.784
109.0, -8918.10016847851, -3826.66335423748, 0.0, 0.0, 0.0, 0.0, 0.0, 0.0, 0.018000000000000002, -0.03, 1.024, 192.0, 0.0, 0.0, 0.0, 0.0, 0.0, 0.0, 0.0, 0.0, 0.0, 1.623604718792074E9, 0.0, 2021-06-13 13:18:38.792
110.0, -9054.669327100435, -3837.23572936484, 0.0, 0.0, 0.0, 0.0, 0.0, 0.0, 0.018000000000000002, -0.03, 1.024, 192.0, 0.0, 0.0, 0.0, 0.0, 0.0, 0.0, 0.0, 0.0, 0.0, 1.62360471879208E9, 0.0, 2021-06-13 13:18:38.792
111.0, -9158.984918473354, -3852.6360812945463, 0.0, 0.0, 0.0, 0.0, 0.0, 0.0, 0.018000000000000002, -0.03, 1.024, 192.0, 0.0, 0.0, 0.0, 0.0, 0.0, 0.0, 0.0, 0.0, 0.0, 1.623604718799454E9, 0.0, 2021-06-13 13:18:38.799
112.0, -9041.079466471609, -3852.9043022280102, 0.0, 0.0, 0.0, 0.0, 0.0, 0.0, 0.018000000000000002, -0.03, 1.024, 192.0, 0.0, 0.0, 0.0, 0.0, 0.0, 0.0, 0.0, 0.0, 0.0, 1.623604718799463E9, 0.0, 2021-06-13 13:18:38.799
113.0, -8917.09433997802, -3848.14338065903, 0.0, 0.0, 0.0, 0.0, 0.0, 0.0, 0.018000000000000002, -0.03, 1.024, 192.0, 0.0, 0.0, 0.0, 0.0, 0.0, 0.0, 0.0, 0.0, 0.0, 1.623604718807393E9, 0.0, 2021-06-13 13:18:38.807
114.0, -9016.604306293048, -3862.649662810524, 0.0, 0.0, 0.0, 0.0, 0.0, 0.0, 0.018000000000000002, -0.03, 1.024, 192.0, 0.0, 0.0, 0.0, 0.0, 0.0, 0.0, 0.0, 0.0, 0.0, 1.623604718807401E9, 0.0, 2021-06-13 13:18:38.807
115.0, -9139.829473475156, -3857.397002863527, 0.0, 0.0, 0.0, 0.0, 0.0, 0.0, 0.018000000000000002, -0.03, 1.024, 192.0, 0.0, 0.0, 0.0, 0.0, 0.0, 0.0, 0.0, 0.0, 0.0, 1.623604718814529E9, 0.0, 2021-06-13 13:18:38.814
116.0, -9044.052248484166, -3850.2444446378286, 0.0, 0.0, 0.0, 0.0, 0.0, 0.0, 0.02, -0.034, 1.028, 192.0, 0.0, 160.0, 254.0, 240.0, 32.0, 32.0, 0.0, 0.0, 0.0, 1.623604718814537E9, 0.0, 2021-06-13 13:18:38.814
117.0, -8874.447211557295, -3848.5680638036806, 0.0, 0.0, 0.0, 0.0, 0.0, 0.0, 0.02, -0.034, 1.028, 192.0, 0.0, 0.0, 0.0, 0.0, 0.0, 0.0, 0.0, 0.0, 0.0, 1.623604718822021E9, 0.0, 2021-06-13 13:18:38.822
118.0, -8918.457796389794, -3853.1948749059293, 0.0, 0.0, 0.0, 0.0, 0.0, 0.0, 0.02, -0.034, 1.028, 192.0, 0.0, 0.0, 0.0, 0.0, 0.0, 0.0, 0.0, 0.0, 0.0, 1.623604718822028E9, 0.0, 2021-06-13 13:18:38.822
119.0, -9047.025030496721, -3853.7983720062225, 0.0, 0.0, 0.0, 0.0, 0.0, 0.0, 0.02, -0.034, 1.028, 192.0, 0.0, 0.0, 0.0, 0.0, 0.0, 0.0, 0.0, 0.0, 0.0, 1.623604718830012E9, 0.0, 2021-06-13 13:18:38.830
120.0, -8972.101983082532, -3848.6127672925913, 0.0, 0.0, 0.0, 0.0, 0.0, 0.0, 0.02, -0.034, 1.028, 192.0, 0.0, 0.0, 0.0, 0.0, 0.0, 0.0, 0.0, 0.0, 0.0, 1.623604718830045E9, 0.0, 2021-06-13 13:18:38.830
121.0, -8774.445506864251, -3839.4038485770047, 0.0, 0.0, 0.0, 0.0, 0.0, 0.0, 0.02, -0.034, 1.028, 192.0, 0.0, 0.0, 0.0, 0.0, 0.0, 0.0, 0.0, 0.0, 0.0, 1.623604718838001E9, 0.0, 2021-06-13 13:18:38.838
122.0, -8770.35513762893, -3850.914996971488, 0.0, 0.0, 0.0, 0.0, 0.0, 0.0, 0.02, -0.034, 1.028, 192.0, 0.0, 0.0, 0.0, 0.0, 0.0, 0.0, 0.0, 0.0, 0.0, 1.623604718838008E9, 0.0, 2021-06-13 13:18:38.838
123.0, -8907.706607306793, -3876.5077443728146, 0.0, 0.0, 0.0, 0.0, 0.0, 0.0, 0.02, -0.034, 1.028, 192.0, 0.0, 0.0, 0.0, 0.0, 0.0, 0.0, 0.0, 0.0, 0.0, 1.623604718844178E9, 0.0, 2021-06-13 13:18:38.844
124.0, -8878.13524939242, -3873.3561484046163, 0.0, 0.0, 0.0, 0.0, 0.0, 0.0, 0.02, -0.034, 1.028, 192.0, 0.0, 0.0, 0.0, 0.0, 0.0, 0.0, 0.0, 0.0, 0.0, 1.623604718844185E9, 0.0, 2021-06-13 13:18:38.844
125.0, -8689.263008745076, -3854.71479352889, 0.0, 0.0, 0.0, 0.0, 0.0, 0.0, 0.02, -0.034, 1.028, 192.0, 0.0, 0.0, 0.0, 0.0, 0.0, 0.0, 0.0, 0.0, 0.0, 1.623604718851556E9, 0.0, 2021-06-13 13:18:38.851
126.0, -8645.587700079406, -3857.464058096893, 0.0, 0.0, 0.0, 0.0, 0.0, 0.0, 0.02, -0.042, 1.034, 192.0, 0.0, 160.0, 254.0, 176.0, 32.0, 80.0, 0.0, 0.0, 0.0, 1.62360471885964E9, 0.0, 2021-06-13 13:18:38.859
127.0, -8789.912914027323, -3870.6068838366136, 0.0, 0.0, 0.0, 0.0, 0.0, 0.0, 0.02, -0.042, 1.034, 192.0, 0.0, 0.0, 0.0, 0.0, 0.0, 0.0, 0.0, 0.0, 0.0, 1.623604718859646E9, 0.0, 2021-06-13 13:18:38.859
128.0, -8809.582449147994, -3865.711851800901, 0.0, 0.0, 0.0, 0.0, 0.0, 0.0, 0.02, -0.042, 1.034, 192.0, 0.0, 0.0, 0.0, 0.0, 0.0, 0.0, 0.0, 0.0, 0.0, 1.623604718867671E9, 0.0, 2021-06-13 13:18:38.867
129.0, -8634.925917974224, -3852.7925435057336, 0.0, 0.0, 0.0, 0.0, 0.0, 0.0, 0.02, -0.042, 1.034, 192.0, 0.0, 0.0, 0.0, 0.0, 0.0, 0.0, 0.0, 0.0, 0.0, 1.623604718867678E9, 0.0, 2021-06-13 13:18:38.867
130.0, -8561.858065349825, -3858.3357761306497, 0.0, 0.0, 0.0, 0.0, 0.0, 0.0, 0.02, -0.042, 1.034, 192.0, 0.0, 0.0, 0.0, 0.0, 0.0, 0.0, 0.0, 0.0, 0.0, 1.623604718874195E9, 0.0, 2021-06-13 13:18:38.874
131.0, -8706.473851975663, -3872.864410026599, 0.0, 0.0, 0.0, 0.0, 0.0, 0.0, 0.02, -0.042, 1.034, 192.0, 0.0, 0.0, 0.0, 0.0, 0.0, 0.0, 0.0, 0.0, 0.0, 1.623604718874201E9, 0.0, 2021-06-13 13:18:38.874
132.0, -8779.273483666597, -3878.452346140426, 0.0, 0.0, 0.0, 0.0, 0.0, 0.0, 0.02, -0.042, 1.034, 192.0, 0.0, 0.0, 0.0, 0.0, 0.0, 0.0, 0.0, 0.0, 0.0, 1.62360471888222E9, 0.0, 2021-06-13 13:18:38.882
133.0, -8639.597432565384, -3862.0014622213203, 0.0, 0.0, 0.0, 0.0, 0.0, 0.0, 0.02, -0.042, 1.034, 192.0, 0.0, 0.0, 0.0, 0.0, 0.0, 0.0, 0.0, 0.0, 0.0, 1.623604718882227E9, 0.0, 2021-06-13 13:18:38.882
134.0, -8535.68417259266, -3851.4961423273257, 0.0, 0.0, 0.0, 0.0, 0.0, 0.0, 0.02, -0.042, 1.034, 192.0, 0.0, 0.0, 0.0, 0.0, 0.0, 0.0, 0.0, 0.0, 0.0, 1.623604718890298E9, 0.0, 2021-06-13 13:18:38.890
135.0, -8663.67026134375, -3866.1141832010967, 0.0, 0.0, 0.0, 0.0, 0.0, 0.0, 0.02, -0.042, 1.034, 192.0, 0.0, 0.0, 0.0, 0.0, 0.0, 0.0, 0.0, 0.0, 0.0, 1.623604718890305E9, 0.0, 2021-06-13 13:18:38.890
136.0, -8777.172419687799, -3891.2375439688617, 0.0, 0.0, 0.0, 0.0, 0.0, 0.0, 0.02, -0.04, 1.026, 192.0, 0.0, 160.0, 254.0, 192.0, 32.0, 16.0, 0.0, 0.0, 0.0, 1.623604718897399E9, 0.0, 2021-06-13 13:18:38.897
137.0, -8663.737316577115, -3879.4358228964597, 0.0, 0.0, 0.0, 0.0, 0.0, 0.0, 0.02, -0.04, 1.026, 192.0, 0.0, 0.0, 0.0, 0.0, 0.0, 0.0, 0.0, 0.0, 0.0, 1.623604718897408E9, 0.0, 2021-06-13 13:18:38.897
138.0, -8533.40429465822, -3861.3085581432056, 0.0, 0.0, 0.0, 0.0, 0.0, 0.0, 0.02, -0.04, 1.026, 192.0, 0.0, 0.0, 0.0, 0.0, 0.0, 0.0, 0.0, 0.0, 0.0, 1.623604718904893E9, 0.0, 2021-06-13 13:18:38.904
139.0, -8628.980353949113, -3868.8187442801886, 0.0, 0.0, 0.0, 0.0, 0.0, 0.0, 0.02, -0.04, 1.026, 192.0, 0.0, 0.0, 0.0, 0.0, 0.0, 0.0, 0.0, 0.0, 0.0, 1.623604718904899E9, 0.0, 2021-06-13 13:18:38.904
140.0, -8769.438716106262, -3880.665168841502, 0.0, 0.0, 0.0, 0.0, 0.0, 0.0, 0.02, -0.04, 1.026, 192.0, 0.0, 0.0, 0.0, 0.0, 0.0, 0.0, 0.0, 0.0, 0.0, 1.623604718911983E9, 0.0, 2021-06-13 13:18:38.911
141.0, -8690.939389579224, -3873.6467210825354, 0.0, 0.0, 0.0, 0.0, 0.0, 0.0, 0.02, -0.04, 1.026, 192.0, 0.0, 0.0, 0.0, 0.0, 0.0, 0.0, 0.0, 0.0, 0.0, 1.623604718920037E9, 0.0, 2021-06-13 13:18:38.920
142.0, -8534.276012691977, -3869.556351847214, 0.0, 0.0, 0.0, 0.0, 0.0, 0.0, 0.02, -0.04, 1.026, 192.0, 0.0, 0.0, 0.0, 0.0, 0.0, 0.0, 0.0, 0.0, 0.0, 1.623604718920044E9, 0.0, 2021-06-13 13:18:38.920
143.0, -8593.441080265175, -3885.0461107547417, 0.0, 0.0, 0.0, 0.0, 0.0, 0.0, 0.02, -0.04, 1.026, 192.0, 0.0, 0.0, 0.0, 0.0, 0.0, 0.0, 0.0, 0.0, 0.0, 1.623604718927194E9, 0.0, 2021-06-13 13:18:38.927
144.0, -8753.747791498638, -3894.5456021482473, 0.0, 0.0, 0.0, 0.0, 0.0, 0.0, 0.02, -0.04, 1.026, 192.0, 0.0, 0.0, 0.0, 0.0, 0.0, 0.0, 0.0, 0.0, 0.0, 1.623604718927201E9, 0.0, 2021-06-13 13:18:38.927
145.0, -8719.326105037464, -3884.7331863323675, 0.0, 0.0, 0.0, 0.0, 0.0, 0.0, 0.02, -0.04, 1.026, 192.0, 0.0, 0.0, 0.0, 0.0, 0.0, 0.0, 0.0, 0.0, 0.0, 1.623604718934633E9, 0.0, 2021-06-13 13:18:38.934
146.0, -8552.470332678597, -3874.585494349658, 0.0, 0.0, 0.0, 0.0, 0.0, 0.0, 0.018000000000000002, -0.038, 1.02, 192.0, 0.0, 144.0, 254.0, 208.0, 31.0, 224.0, 0.0, 0.0, 0.0, 1.623604718934641E9, 0.0, 2021-06-13 13:18:38.934
147.0, -8568.563588686418, -3876.5300961172697, 0.0, 0.0, 0.0, 0.0, 0.0, 0.0, 0.018000000000000002, -0.038, 1.02, 192.0, 0.0, 0.0, 0.0, 0.0, 0.0, 0.0, 0.0, 0.0, 0.0, 1.623604718942573E9, 0.0, 2021-06-13 13:18:38.942
148.0, -8735.374657556375, -3887.5718578781916, 0.0, 0.0, 0.0, 0.0, 0.0, 0.0, 0.018000000000000002, -0.038, 1.02, 192.0, 0.0, 0.0, 0.0, 0.0, 0.0, 0.0, 0.0, 0.0, 0.0, 1.623604718942579E9, 0.0, 2021-06-13 13:18:38.942
149.0, -8743.041305904544, -3883.168564220496, 0.0, 0.0, 0.0, 0.0, 0.0, 0.0, 0.018000000000000002, -0.038, 1.02, 192.0, 0.0, 0.0, 0.0, 0.0, 0.0, 0.0, 0.0, 0.0, 0.0, 1.623604718950626E9, 0.0, 2021-06-13 13:18:38.950
150.0, -8577.593693446363, -3870.9645117478985, 0.0, 0.0, 0.0, 0.0, 0.0, 0.0, 0.018000000000000002, -0.038, 1.02, 192.0, 0.0, 0.0, 0.0, 0.0, 0.0, 0.0, 0.0, 0.0, 0.0, 1.623604718950632E9, 0.0, 2021-06-13 13:18:38.950
151.0, -8548.536425654464, -3873.132630960063, 0.0, 0.0, 0.0, 0.0, 0.0, 0.0, 0.018000000000000002, -0.038, 1.02, 192.0, 0.0, 0.0, 0.0, 0.0, 0.0, 0.0, 0.0, 0.0, 0.0, 1.623604718957186E9, 0.0, 2021-06-13 13:18:38.957
152.0, -8712.732340423148, -3884.2190962098953, 0.0, 0.0, 0.0, 0.0, 0.0, 0.0, 0.018000000000000002, -0.038, 1.02, 192.0, 0.0, 0.0, 0.0, 0.0, 0.0, 0.0, 0.0, 0.0, 0.0, 1.623604718957219E9, 0.0, 2021-06-13 13:18:38.957
153.0, -8765.817733504502, -3888.6447416120463, 0.0, 0.0, 0.0, 0.0, 0.0, 0.0, 0.018000000000000002, -0.038, 1.02, 192.0, 0.0, 0.0, 0.0, 0.0, 0.0, 0.0, 0.0, 0.0, 0.0, 1.623604718965139E9, 0.0, 2021-06-13 13:18:38.965
154.0, -8611.881269440802, -3885.180221221474, 0.0, 0.0, 0.0, 0.0, 0.0, 0.0, 0.018000000000000002, -0.038, 1.02, 192.0, 0.0, 0.0, 0.0, 0.0, 0.0, 0.0, 0.0, 0.0, 0.0, 1.623604718965149E9, 0.0, 2021-06-13 13:18:38.965
155.0, -8533.136073724756, -3887.6389131115575, 0.0, 0.0, 0.0, 0.0, 0.0, 0.0, 0.022, -0.034, 1.024, 192.0, 0.0, 176.0, 254.0, 240.0, 32.0, 0.0, 0.0, 0.0, 0.0, 1.623604718972188E9, 0.0, 2021-06-13 13:18:38.972
156.0, -8680.992863296613, -3899.910020817521, 0.0, 0.0, 0.0, 0.0, 0.0, 0.0, 0.022, -0.034, 1.024, 192.0, 0.0, 0.0, 0.0, 0.0, 0.0, 0.0, 0.0, 0.0, 0.0, 1.623604718979219E9, 0.0, 2021-06-13 13:18:38.979
157.0, -8771.696242296248, -3892.690407358457, 0.0, 0.0, 0.0, 0.0, 0.0, 0.0, 0.022, -0.034, 1.024, 192.0, 0.0, 0.0, 0.0, 0.0, 0.0, 0.0, 0.0, 0.0, 0.0, 1.623604718979231E9, 0.0, 2021-06-13 13:18:38.979
158.0, -8637.406961608764, -3877.2900554287503, 0.0, 0.0, 0.0, 0.0, 0.0, 0.0, 0.022, -0.034, 1.024, 192.0, 0.0, 0.0, 0.0, 0.0, 0.0, 0.0, 0.0, 0.0, 0.0, 1.623604718986792E9, 0.0, 2021-06-13 13:18:38.986
159.0, -8526.1623294547, -3886.498974144337, 0.0, 0.0, 0.0, 0.0, 0.0, 0.0, 0.022, -0.034, 1.024, 192.0, 0.0, 0.0, 0.0, 0.0, 0.0, 0.0, 0.0, 0.0, 0.0, 1.623604718986799E9, 0.0, 2021-06-13 13:18:38.986
160.0, -8648.292261158498, -3904.492128430859, 0.0, 0.0, 0.0, 0.0, 0.0, 0.0, 0.022, -0.034, 1.024, 192.0, 0.0, 0.0, 0.0, 0.0, 0.0, 0.0, 0.0, 0.0, 0.0, 1.623604718994814E9, 0.0, 2021-06-13 13:18:38.994
161.0, -8769.349309128442, -3911.7564453788336, 0.0, 0.0, 0.0, 0.0, 0.0, 0.0, 0.022, -0.034, 1.024, 192.0, 0.0, 0.0, 0.0, 0.0, 0.0, 0.0, 0.0, 0.0, 0.0, 1.623604718994844E9, 0.0, 2021-06-13 13:18:38.994
162.0, -8667.470057901151, -3898.7924335947555, 0.0, 0.0, 0.0, 0.0, 0.0, 0.0, 0.022, -0.034, 1.024, 192.0, 0.0, 0.0, 0.0, 0.0, 0.0, 0.0, 0.0, 0.0, 0.0, 1.623604719002991E9, 0.0, 2021-06-13 13:18:39.002
163.0, -8520.328524151864, -3884.2190962098953, 0.0, 0.0, 0.0, 0.0, 0.0, 0.0, 0.022, -0.034, 1.024, 192.0, 0.0, 0.0, 0.0, 0.0, 0.0, 0.0, 0.0, 0.0, 0.0, 1.623604719002999E9, 0.0, 2021-06-13 13:18:39.002
164.0, -8607.813251949938, -3891.2375439688617, 0.0, 0.0, 0.0, 0.0, 0.0, 0.0, 0.022, -0.034, 1.024, 192.0, 0.0, 0.0, 0.0, 0.0, 0.0, 0.0, 0.0, 0.0, 0.0, 1.62360471900998E9, 0.0, 2021-06-13 13:18:39.009
165.0, -8756.720573511193, -3898.881840572577, 0.0, 0.0, 0.0, 0.0, 0.0, 0.0, 0.024, -0.03, 1.022, 192.0, 0.0, 192.0, 255.0, 16.0, 31.0, 240.0, 0.0, 0.0, 0.0, 1.623604719009987E9, 0.0, 2021-06-13 13:18:39.009
166.0, -8692.883991346836, -3904.872108086599, 0.0, 0.0, 0.0, 0.0, 0.0, 0.0, 0.024, -0.03, 1.022, 192.0, 0.0, 0.0, 0.0, 0.0, 0.0, 0.0, 0.0, 0.0, 0.0, 1.623604719017365E9, 0.0, 2021-06-13 13:18:39.017
167.0, -8537.78523657146, -3898.300695216739, 0.0, 0.0, 0.0, 0.0, 0.0, 0.0, 0.024, -0.03, 1.022, 192.0, 0.0, 0.0, 0.0, 0.0, 0.0, 0.0, 0.0, 0.0, 0.0, 1.623604719017373E9, 0.0, 2021-06-13 13:18:39.017
168.0, -8581.75111791505, -3891.326950946683, 0.0, 0.0, 0.0, 0.0, 0.0, 0.0, 0.024, -0.03, 1.022, 192.0, 0.0, 0.0, 0.0, 0.0, 0.0, 0.0, 0.0, 0.0, 0.0, 1.623604719025454E9, 0.0, 2021-06-13 13:18:39.025
169.0, -8742.460160548706, -3911.1305965340853, 0.0, 0.0, 0.0, 0.0, 0.0, 0.0, 0.024, -0.03, 1.022, 192.0, 0.0, 0.0, 0.0, 0.0, 0.0, 0.0, 0.0, 0.0, 0.0, 1.623604719025461E9, 0.0, 2021-06-13 13:18:39.025
170.0, -8717.672075947772, -3915.0198000693085, 0.0, 0.0, 0.0, 0.0, 0.0, 0.0, 0.024, -0.03, 1.022, 192.0, 0.0, 0.0, 0.0, 0.0, 0.0, 0.0, 0.0, 0.0, 0.0, 1.623604719032509E9, 0.0, 2021-06-13 13:18:39.032
171.0, -8551.509207667019, -3903.463948185915, 0.0, 0.0, 0.0, 0.0, 0.0, 0.0, 0.024, -0.03, 1.022, 192.0, 0.0, 0.0, 0.0, 0.0, 0.0, 0.0, 0.0, 0.0, 0.0, 1.623604719039125E9, 0.0, 2021-06-13 13:18:39.039
172.0, -8553.207940245622, -3909.1189395331076, 0.0, 0.0, 0.0, 0.0, 0.0, 0.0, 0.024, -0.03, 1.022, 192.0, 0.0, 0.0, 0.0, 0.0, 0.0, 0.0, 0.0, 0.0, 0.0, 1.623604719039148E9, 0.0, 2021-06-13 13:18:39.039
173.0, -8720.15311958231, -3914.0363233132753, 0.0, 0.0, 0.0, 0.0, 0.0, 0.0, 0.024, -0.03, 1.022, 192.0, 0.0, 0.0, 0.0, 0.0, 0.0, 0.0, 0.0, 0.0, 0.0, 1.623604719047154E9, 0.0, 2021-06-13 13:18:39.047
174.0, -8737.92275642428, -3909.1859947664734, 0.0, 0.0, 0.0, 0.0, 0.0, 0.0, 0.024, -0.03, 1.022, 192.0, 0.0, 0.0, 0.0, 0.0, 0.0, 0.0, 0.0, 0.0, 0.0, 1.623604719047161E9, 0.0, 2021-06-13 13:18:39.047
175.0, -8576.654920179239, -3899.2841719727726, 0.0, 0.0, 0.0, 0.0, 0.0, 0.0, 0.024, -0.034, 1.024, 192.0, 0.0, 192.0, 254.0, 240.0, 32.0, 0.0, 0.0, 0.0, 0.0, 1.62360471905512E9, 0.0, 2021-06-13 13:18:39.055
176.0, -8537.82994006037, -3909.4095122110266, 0.0, 0.0, 0.0, 0.0, 0.0, 0.0, 0.024, -0.034, 1.024, 192.0, 0.0, 0.0, 0.0, 0.0, 0.0, 0.0, 0.0, 0.0, 0.0, 1.623604719055127E9, 0.0, 2021-06-13 13:18:39.055
177.0, -8700.841212372925, -3922.977021095398, 0.0, 0.0, 0.0, 0.0, 0.0, 0.0, 0.024, -0.034, 1.024, 192.0, 0.0, 0.0, 0.0, 0.0, 0.0, 0.0, 0.0, 0.0, 0.0, 1.623604719062211E9, 0.0, 2021-06-13 13:18:39.062
178.0, -8757.704050267226, -3914.6845239024788, 0.0, 0.0, 0.0, 0.0, 0.0, 0.0, 0.024, -0.034, 1.024, 192.0, 0.0, 0.0, 0.0, 0.0, 0.0, 0.0, 0.0, 0.0, 0.0, 1.62360471906222E9, 0.0, 2021-06-13 13:18:39.062
179.0, -8607.969714161125, -3904.3133144752164, 0.0, 0.0, 0.0, 0.0, 0.0, 0.0, 0.024, -0.034, 1.024, 192.0, 0.0, 0.0, 0.0, 0.0, 0.0, 0.0, 0.0, 0.0, 0.0, 1.623604719069625E9, 0.0, 2021-06-13 13:18:39.069
180.0, -8524.888280020748, -3908.291924988261, 0.0, 0.0, 0.0, 0.0, 0.0, 0.0, 0.024, -0.034, 1.024, 192.0, 0.0, 0.0, 0.0, 0.0, 0.0, 0.0, 0.0, 0.0, 0.0, 1.623604719069632E9, 0.0, 2021-06-13 13:18:39.069
181.0, -8662.798543309993, -3918.685486159979, 0.0, 0.0, 0.0, 0.0, 0.0, 0.0, 0.024, -0.034, 1.024, 192.0, 0.0, 0.0, 0.0, 0.0, 0.0, 0.0, 0.0, 0.0, 0.0, 1.62360471907769E9, 0.0, 2021-06-13 13:18:39.077
182.0, -8758.128733411877, -3925.458064729937, 0.0, 0.0, 0.0, 0.0, 0.0, 0.0, 0.024, -0.034, 1.024, 192.0, 0.0, 0.0, 0.0, 0.0, 0.0, 0.0, 0.0, 0.0, 0.0, 1.623604719077696E9, 0.0, 2021-06-13 13:18:39.077
183.0, -8635.194138907687, -3918.5066722043366, 0.0, 0.0, 0.0, 0.0, 0.0, 0.0, 0.024, -0.034, 1.024, 192.0, 0.0, 0.0, 0.0, 0.0, 0.0, 0.0, 0.0, 0.0, 0.0, 1.623604719085732E9, 0.0, 2021-06-13 13:18:39.085
184.0, -8520.641448574239, -3907.6660761435123, 0.0, 0.0, 0.0, 0.0, 0.0, 0.0, 0.024, -0.034, 1.024, 192.0, 0.0, 0.0, 0.0, 0.0, 0.0, 0.0, 0.0, 0.0, 0.0, 1.623604719085739E9, 0.0, 2021-06-13 13:18:39.085
185.0, -8631.103769672367, -3920.9877158388754, 0.0, 0.0, 0.0, 0.0, 0.0, 0.0, 0.024, -0.034, 1.026, 192.0, 0.0, 192.0, 254.0, 240.0, 32.0, 16.0, 0.0, 0.0, 0.0, 1.623604719091887E9, 0.0, 2021-06-13 13:18:39.091
186.0, -8760.341556112953, -3934.5775764677023, 0.0, 0.0, 0.0, 0.0, 0.0, 0.0, 0.024, -0.034, 1.026, 192.0, 0.0, 0.0, 0.0, 0.0, 0.0, 0.0, 0.0, 0.0, 0.0, 1.623604719091893E9, 0.0, 2021-06-13 13:18:39.091
187.0, -8673.013290526067, -3922.9323176064872, 0.0, 0.0, 0.0, 0.0, 0.0, 0.0, 0.024, -0.034, 1.026, 192.0, 0.0, 0.0, 0.0, 0.0, 0.0, 0.0, 0.0, 0.0, 0.0, 1.62360471909937E9, 0.0, 2021-06-13 13:18:39.099
188.0, -8530.11858822329, -3910.1471197780515, 0.0, 0.0, 0.0, 0.0, 0.0, 0.0, 0.024, -0.034, 1.026, 192.0, 0.0, 0.0, 0.0, 0.0, 0.0, 0.0, 0.0, 0.0, 0.0, 1.623604719107365E9, 0.0, 2021-06-13 13:18:39.107
189.0, -8603.387606547787, -3914.2821925022836, 0.0, 0.0, 0.0, 0.0, 0.0, 0.0, 0.024, -0.034, 1.026, 192.0, 0.0, 0.0, 0.0, 0.0, 0.0, 0.0, 0.0, 0.0, 0.0, 1.623604719107371E9, 0.0, 2021-06-13 13:18:39.107
190.0, -8751.959651942212, -3926.7768176528, 0.0, 0.0, 0.0, 0.0, 0.0, 0.0, 0.024, -0.034, 1.026, 192.0, 0.0, 0.0, 0.0, 0.0, 0.0, 0.0, 0.0, 0.0, 0.0, 1.623604719115416E9, 0.0, 2021-06-13 13:18:39.115
191.0, -8707.054997331501, -3924.7651606518225, 0.0, 0.0, 0.0, 0.0, 0.0, 0.0, 0.024, -0.034, 1.026, 192.0, 0.0, 0.0, 0.0, 0.0, 0.0, 0.0, 0.0, 0.0, 0.0, 1.623604719115423E9, 0.0, 2021-06-13 13:18:39.115
192.0, -8552.112704767313, -3918.2384512708727, 0.0, 0.0, 0.0, 0.0, 0.0, 0.0, 0.024, -0.034, 1.026, 192.0, 0.0, 0.0, 0.0, 0.0, 0.0, 0.0, 0.0, 0.0, 0.0, 1.623604719122007E9, 0.0, 2021-06-13 13:18:39.122
193.0, -8579.940626614169, -3929.839006643177, 0.0, 0.0, 0.0, 0.0, 0.0, 0.0, 0.024, -0.034, 1.026, 192.0, 0.0, 0.0, 0.0, 0.0, 0.0, 0.0, 0.0, 0.0, 0.0, 1.623604719122014E9, 0.0, 2021-06-13 13:18:39.122
194.0, -8741.63314600386, -3945.127599850607, 0.0, 0.0, 0.0, 0.0, 0.0, 0.0, 0.024, -0.034, 1.026, 192.0, 0.0, 0.0, 0.0, 0.0, 0.0, 0.0, 0.0, 0.0, 0.0, 1.623604719130037E9, 0.0, 2021-06-13 13:18:39.130
195.0, -8732.468930777184, -3937.1703788245177, 0.0, 0.0, 0.0, 0.0, 0.0, 0.0, 0.02, -0.032, 1.028, 192.0, 0.0, 160.0, 255.0, 0.0, 32.0, 32.0, 0.0, 0.0, 0.0, 1.623604719130043E9, 0.0, 2021-06-13 13:18:39.130
196.0, -8575.872609123304, -3929.3696200096156, 0.0, 0.0, 0.0, 0.0, 0.0, 0.0, 0.02, -0.032, 1.028, 192.0, 0.0, 0.0, 0.0, 0.0, 0.0, 0.0, 0.0, 0.0, 0.0, 1.623604719138027E9, 0.0, 2021-06-13 13:18:39.138
197.0, -8564.964957829114, -3927.6932391754676, 0.0, 0.0, 0.0, 0.0, 0.0, 0.0, 0.02, -0.032, 1.028, 192.0, 0.0, 0.0, 0.0, 0.0, 0.0, 0.0, 0.0, 0.0, 0.0, 1.623604719138034E9, 0.0, 2021-06-13 13:18:39.138
198.0, -8721.91890739428, -3934.1528933230516, 0.0, 0.0, 0.0, 0.0, 0.0, 0.0, 0.02, -0.032, 1.028, 192.0, 0.0, 0.0, 0.0, 0.0, 0.0, 0.0, 0.0, 0.0, 0.0, 1.623604719144624E9, 0.0, 2021-06-13 13:18:39.144
199.0, -8750.68560250826, -3934.2199485564174, 0.0, 0.0, 0.0, 0.0, 0.0, 0.0, 0.02, -0.032, 1.028, 192.0, 0.0, 0.0, 0.0, 0.0, 0.0, 0.0, 0.0, 0.0, 0.0, 1.623604719144631E9, 0.0, 2021-06-13 13:18:39.144
200.0, -8604.505193770552, -3916.3385529921716, 0.0, 0.0, 0.0, 0.0, 0.0, 0.0, 0.02, -0.032, 1.028, 192.0, 0.0, 0.0, 0.0, 0.0, 0.0, 0.0, 0.0, 0.0, 0.0, 1.623604719152658E9, 0.0, 2021-06-13 13:18:39.152
201.0, -8552.805608845427, -3922.1500065505516, 0.0, 0.0, 0.0, 0.0, 0.0, 0.0, 0.02, -0.032, 1.028, 192.0, 0.0, 0.0, 0.0, 0.0, 0.0, 0.0, 0.0, 0.0, 0.0, 1.623604719152665E9, 0.0, 2021-06-13 13:18:39.152
202.0, -8700.52828795055, -3945.842855673177, 0.0, 0.0, 0.0, 0.0, 0.0, 0.0, 0.02, -0.032, 1.028, 192.0, 0.0, 0.0, 0.0, 0.0, 0.0, 0.0, 0.0, 0.0, 0.0, 1.623604719159569E9, 0.0, 2021-06-13 13:18:39.159
203.0, -8767.672928294292, -3946.736925451389, 0.0, 0.0, 0.0, 0.0, 0.0, 0.0, 0.02, -0.032, 1.028, 192.0, 0.0, 0.0, 0.0, 0.0, 0.0, 0.0, 0.0, 0.0, 0.0, 1.623604719167575E9, 0.0, 2021-06-13 13:18:39.167
204.0, -8634.791807507492, -3927.4697217309144, 0.0, 0.0, 0.0, 0.0, 0.0, 0.0, 0.02, -0.032, 1.028, 192.0, 0.0, 0.0, 0.0, 0.0, 0.0, 0.0, 0.0, 0.0, 0.0, 1.623604719167583E9, 0.0, 2021-06-13 13:18:39.167
205.0, -8548.603480887828, -3927.0673903307193, 0.0, 0.0, 0.0, 0.0, 0.0, 0.0, 0.022, -0.03, 1.028, 192.0, 0.0, 176.0, 255.0, 16.0, 32.0, 32.0, 0.0, 0.0, 0.0, 1.623604719174339E9, 0.0, 2021-06-13 13:18:39.174
206.0, -8675.919017305258, -3935.091666590174, 0.0, 0.0, 0.0, 0.0, 0.0, 0.0, 0.022, -0.03, 1.028, 192.0, 0.0, 0.0, 0.0, 0.0, 0.0, 0.0, 0.0, 0.0, 0.0, 1.623604719174348E9, 0.0, 2021-06-13 13:18:39.174
207.0, -8782.581541845982, -3929.190806053973, 0.0, 0.0, 0.0, 0.0, 0.0, 0.0, 0.022, -0.03, 1.028, 192.0, 0.0, 0.0, 0.0, 0.0, 0.0, 0.0, 0.0, 0.0, 0.0, 1.623604719182245E9, 0.0, 2021-06-13 13:18:39.182
208.0, -8675.42727892724, -3919.847776871655, 0.0, 0.0, 0.0, 0.0, 0.0, 0.0, 0.022, -0.03, 1.028, 192.0, 0.0, 0.0, 0.0, 0.0, 0.0, 0.0, 0.0, 0.0, 0.0, 1.623604719182252E9, 0.0, 2021-06-13 13:18:39.182
209.0, -8551.93389081167, -3907.8001866102445, 0.0, 0.0, 0.0, 0.0, 0.0, 0.0, 0.022, -0.03, 1.028, 192.0, 0.0, 0.0, 0.0, 0.0, 0.0, 0.0, 0.0, 0.0, 0.0, 1.623604719190299E9, 0.0, 2021-06-13 13:18:39.190
210.0, -8647.420543124741, -3912.806977368233, 0.0, 0.0, 0.0, 0.0, 0.0, 0.0, 0.022, -0.03, 1.028, 192.0, 0.0, 0.0, 0.0, 0.0, 0.0, 0.0, 0.0, 0.0, 0.0, 1.623604719190309E9, 0.0, 2021-06-13 13:18:39.190
211.0, -8779.675815066794, -3929.146102565063, 0.0, 0.0, 0.0, 0.0, 0.0, 0.0, 0.022, -0.03, 1.028, 192.0, 0.0, 0.0, 0.0, 0.0, 0.0, 0.0, 0.0, 0.0, 0.0, 1.623604719197644E9, 0.0, 2021-06-13 13:18:39.197
212.0, -8700.215363528176, -3896.6690178715016, 0.0, 0.0, 0.0, 0.0, 0.0, 0.0, 0.022, -0.03, 1.028, 192.0, 0.0, 0.0, 0.0, 0.0, 0.0, 0.0, 0.0, 0.0, 0.0, 1.623604719197652E9, 0.0, 2021-06-13 13:18:39.197
213.0, -8563.020356061501, -3866.1588866900074, 0.0, 0.0, 0.0, 0.0, 0.0, 0.0, 0.022, -0.03, 1.028, 192.0, 0.0, 0.0, 0.0, 0.0, 0.0, 0.0, 0.0, 0.0, 0.0, 1.623604719204888E9, 0.0, 2021-06-13 13:18:39.204
214.0, -8630.544976060984, -3855.6982702849236, 0.0, 0.0, 0.0, 0.0, 0.0, 0.0, 0.022, -0.03, 1.028, 192.0, 0.0, 0.0, 0.0, 0.0, 0.0, 0.0, 0.0, 0.0, 0.0, 1.623604719204895E9, 0.0, 2021-06-13 13:18:39.204
215.0, -8788.683568082282, -3843.0248311787645, 0.0, 0.0, 0.0, 0.0, 0.0, 0.0, 0.026000000000000002, -0.028, 1.026, 192.0, 0.0, 208.0, 255.0, 32.0, 32.0, 16.0, 0.0, 0.0, 0.0, 1.623604719212881E9, 0.0, 2021-06-13 13:18:39.212
216.0, -8752.786666487058, -3791.9510950983877, 0.0, 0.0, 0.0, 0.0, 0.0, 0.0, 0.026000000000000002, -0.028, 1.026, 192.0, 0.0, 0.0, 0.0, 0.0, 0.0, 0.0, 0.0, 0.0, 0.0, 1.623604719212888E9, 0.0, 2021-06-13 13:18:39.212
217.0, -8588.300179040454, -3730.2602804017406, 0.0, 0.0, 0.0, 0.0, 0.0, 0.0, 0.026000000000000002, -0.028, 1.026, 192.0, 0.0, 0.0, 0.0, 0.0, 0.0, 0.0, 0.0, 0.0, 0.0, 1.623604719220064E9, 0.0, 2021-06-13 13:18:39.220
218.0, -8608.975542661612, -3674.984416363766, 0.0, 0.0, 0.0, 0.0, 0.0, 0.0, 0.026000000000000002, -0.028, 1.026, 192.0, 0.0, 0.0, 0.0, 0.0, 0.0, 0.0, 0.0, 0.0, 0.0, 1.623604719227215E9, 0.0, 2021-06-13 13:18:39.227
219.0, -8779.318187155508, -3645.7706863606795, 0.0, 0.0, 0.0, 0.0, 0.0, 0.0, 0.026000000000000002, -0.028, 1.026, 192.0, 0.0, 0.0, 0.0, 0.0, 0.0, 0.0, 0.0, 0.0, 0.0, 1.623604719227221E9, 0.0, 2021-06-13 13:18:39.227
220.0, -8794.897353040857, -3586.6503222763927, 0.0, 0.0, 0.0, 0.0, 0.0, 0.0, 0.026000000000000002, -0.028, 1.026, 192.0, 0.0, 0.0, 0.0, 0.0, 0.0, 0.0, 0.0, 0.0, 0.0, 1.62360471923459E9, 0.0, 2021-06-13 13:18:39.234
221.0, -8646.526473346528, -3524.7806936241027, 0.0, 0.0, 0.0, 0.0, 0.0, 0.0, 0.026000000000000002, -0.028, 1.026, 192.0, 0.0, 0.0, 0.0, 0.0, 0.0, 0.0, 0.0, 0.0, 0.0, 1.623604719234599E9, 0.0, 2021-06-13 13:18:39.234
222.0, -8625.359371347353, -3484.1005187154437, 0.0, 0.0, 0.0, 0.0, 0.0, 0.0, 0.026000000000000002, -0.028, 1.026, 192.0, 0.0, 0.0, 0.0, 0.0, 0.0, 0.0, 0.0, 0.0, 0.0, 1.623604719242585E9, 0.0, 2021-06-13 13:18:39.242
223.0, -8779.944036000257, -3457.7478120026367, 0.0, 0.0, 0.0, 0.0, 0.0, 0.0, 0.026000000000000002, -0.028, 1.026, 192.0, 0.0, 0.0, 0.0, 0.0, 0.0, 0.0, 0.0, 0.0, 0.0, 1.623604719242593E9, 0.0, 2021-06-13 13:18:39.242
224.0, -8830.45897846925, -3437.899462926324, 0.0, 0.0, 0.0, 0.0, 0.0, 0.0, 0.024, -0.028, 1.026, 192.0, 0.0, 192.0, 255.0, 32.0, 32.0, 16.0, 0.0, 0.0, 0.0, 1.623604719250528E9, 0.0, 2021-06-13 13:18:39.250
225.0, -8705.043340330523, -3414.5418899705282, 0.0, 0.0, 0.0, 0.0, 0.0, 0.0, 0.024, -0.028, 1.026, 192.0, 0.0, 0.0, 0.0, 0.0, 0.0, 0.0, 0.0, 0.0, 0.0, 1.623604719250535E9, 0.0, 2021-06-13 13:18:39.250
226.0, -8658.261139185564, -3390.558468169984, 0.0, 0.0, 0.0, 0.0, 0.0, 0.0, 0.024, -0.028, 1.026, 192.0, 0.0, 0.0, 0.0, 0.0, 0.0, 0.0, 0.0, 0.0, 0.0, 1.623604719257215E9, 0.0, 2021-06-13 13:18:39.257
227.0, -8796.663140852826, -3394.0229885605563, 0.0, 0.0, 0.0, 0.0, 0.0, 0.0, 0.024, -0.028, 1.026, 192.0, 0.0, 0.0, 0.0, 0.0, 0.0, 0.0, 0.0, 0.0, 0.0, 1.623604719257242E9, 0.0, 2021-06-13 13:18:39.257
228.0, -8850.41908626784, -3419.1016458394106, 0.0, 0.0, 0.0, 0.0, 0.0, 0.0, 0.024, -0.028, 1.026, 192.0, 0.0, 0.0, 0.0, 0.0, 0.0, 0.0, 0.0, 0.0, 0.0, 1.62360471926518E9, 0.0, 2021-06-13 13:18:39.265
229.0, -8711.39123575583, -3425.404837775807, 0.0, 0.0, 0.0, 0.0, 0.0, 0.0, 0.024, -0.028, 1.026, 192.0, 0.0, 0.0, 0.0, 0.0, 0.0, 0.0, 0.0, 0.0, 0.0, 1.62360471926519E9, 0.0, 2021-06-13 13:18:39.265
230.0, -8609.51198452854, -3418.386390016841, 0.0, 0.0, 0.0, 0.0, 0.0, 0.0, 0.024, -0.028, 1.026, 192.0, 0.0, 0.0, 0.0, 0.0, 0.0, 0.0, 0.0, 0.0, 0.0, 1.623604719273106E9, 0.0, 2021-06-13 13:18:39.273
231.0, -8734.368829055886, -3436.223082092176, 0.0, 0.0, 0.0, 0.0, 0.0, 0.0, 0.024, -0.028, 1.026, 192.0, 0.0, 0.0, 0.0, 0.0, 0.0, 0.0, 0.0, 0.0, 0.0, 1.623604719273113E9, 0.0, 2021-06-13 13:18:39.273
232.0, -8850.329679290018, -3472.052928454033, 0.0, 0.0, 0.0, 0.0, 0.0, 0.0, 0.024, -0.028, 1.026, 192.0, 0.0, 0.0, 0.0, 0.0, 0.0, 0.0, 0.0, 0.0, 0.0, 1.623604719280394E9, 0.0, 2021-06-13 13:18:39.280
233.0, -8751.803189731025, -3468.387242363363, 0.0, 0.0, 0.0, 0.0, 0.0, 0.0, 0.024, -0.028, 1.026, 192.0, 0.0, 0.0, 0.0, 0.0, 0.0, 0.0, 0.0, 0.0, 0.0, 1.623604719286852E9, 0.0, 2021-06-13 13:18:39.286
234.0, -8625.448778325173, -3472.54466683205, 0.0, 0.0, 0.0, 0.0, 0.0, 0.0, 0.024, -0.028, 1.026, 192.0, 0.0, 192.0, 255.0, 32.0, 32.0, 16.0, 0.0, 0.0, 0.0, 1.623604719286872E9, 0.0, 2021-06-13 13:18:39.286
235.0, -8719.840195159935, -3503.278315458097, 0.0, 0.0, 0.0, 0.0, 0.0, 0.0, 0.024, -0.028, 1.026, 192.0, 0.0, 0.0, 0.0, 0.0, 0.0, 0.0, 0.0, 0.0, 0.0, 1.623604719294823E9, 0.0, 2021-06-13 13:18:39.294
236.0, -8846.239310054698, -3536.2247867852197, 0.0, 0.0, 0.0, 0.0, 0.0, 0.0, 0.024, -0.028, 1.026, 192.0, 0.0, 0.0, 0.0, 0.0, 0.0, 0.0, 0.0, 0.0, 0.0, 1.623604719294827E9, 0.0, 2021-06-13 13:18:39.294
237.0, -8757.279367122575, -3555.044955616588, 0.0, 0.0, 0.0, 0.0, 0.0, 0.0, 0.024, -0.028, 1.026, 192.0, 0.0, 0.0, 0.0, 0.0, 0.0, 0.0, 0.0, 0.0, 0.0, 1.623604719302909E9, 0.0, 2021-06-13 13:18:39.302
238.0, -8585.260341794532, -3571.0041011576777, 0.0, 0.0, 0.0, 0.0, 0.0, 0.0, 0.024, -0.028, 1.026, 192.0, 0.0, 0.0, 0.0, 0.0, 0.0, 0.0, 0.0, 0.0, 0.0, 1.623604719302916E9, 0.0, 2021-06-13 13:18:39.302
239.0, -8632.489577828595, -3602.050674206099, 0.0, 0.0, 0.0, 0.0, 0.0, 0.0, 0.024, -0.028, 1.026, 192.0, 0.0, 0.0, 0.0, 0.0, 0.0, 0.0, 0.0, 0.0, 0.0, 1.623604719309561E9, 0.0, 2021-06-13 13:18:39.309
240.0, -8794.651483851849, -3629.05158150811, 0.0, 0.0, 0.0, 0.0, 0.0, 0.0, 0.024, -0.028, 1.026, 192.0, 0.0, 0.0, 0.0, 0.0, 0.0, 0.0, 0.0, 0.0, 0.0, 1.623604719309568E9, 0.0, 2021-06-13 13:18:39.309
241.0, -8762.554378814028, -3645.636575893948, 0.0, 0.0, 0.0, 0.0, 0.0, 0.0, 0.024, -0.028, 1.026, 192.0, 0.0, 0.0, 0.0, 0.0, 0.0, 0.0, 0.0, 0.0, 0.0, 1.623604719317521E9, 0.0, 2021-06-13 13:18:39.317
242.0, -8596.32445529991, -3657.5500556886263, 0.0, 0.0, 0.0, 0.0, 0.0, 0.0, 0.024, -0.028, 1.026, 192.0, 0.0, 0.0, 0.0, 0.0, 0.0, 0.0, 0.0, 0.0, 0.0, 1.623604719317527E9, 0.0, 2021-06-13 13:18:39.317
243.0, -8612.84239445238, -3676.169058819897, 0.0, 0.0, 0.0, 0.0, 0.0, 0.0, 0.024, -0.028, 1.026, 192.0, 0.0, 0.0, 0.0, 0.0, 0.0, 0.0, 0.0, 0.0, 0.0, 1.623604719325408E9, 0.0, 2021-06-13 13:18:39.325
244.0, -8786.291931425563, -3704.9581056783327, 0.0, 0.0, 0.0, 0.0, 0.0, 0.0, 0.024, -0.03, 1.026, 192.0, 0.0, 192.0, 255.0, 16.0, 32.0, 16.0, 0.0, 0.0, 0.0, 1.623604719325414E9, 0.0, 2021-06-13 13:18:39.325
245.0, -8801.35700718844, -3713.4517685713495, 0.0, 0.0, 0.0, 0.0, 0.0, 0.0, 0.024, -0.03, 1.026, 192.0, 0.0, 0.0, 0.0, 0.0, 0.0, 0.0, 0.0, 0.0, 0.0, 1.623604719332669E9, 0.0, 2021-06-13 13:18:39.332
246.0, -8635.976449963624, -3707.9979429242544, 0.0, 0.0, 0.0, 0.0, 0.0, 0.0, 0.024, -0.03, 1.026, 192.0, 0.0, 0.0, 0.0, 0.0, 0.0, 0.0, 0.0, 0.0, 0.0, 1.623604719332675E9, 0.0, 2021-06-13 13:18:39.332
247.0, -8599.565458245928, -3719.9784779522993, 0.0, 0.0, 0.0, 0.0, 0.0, 0.0, 0.024, -0.03, 1.026, 192.0, 0.0, 0.0, 0.0, 0.0, 0.0, 0.0, 0.0, 0.0, 0.0, 1.623604719339174E9, 0.0, 2021-06-13 13:18:39.339
248.0, -8768.052907950034, -3753.304928935162, 0.0, 0.0, 0.0, 0.0, 0.0, 0.0, 0.024, -0.03, 1.026, 192.0, 0.0, 0.0, 0.0, 0.0, 0.0, 0.0, 0.0, 0.0, 0.0, 1.623604719339182E9, 0.0, 2021-06-13 13:18:39.339
249.0, -8825.787463878092, -3783.882115350022, 0.0, 0.0, 0.0, 0.0, 0.0, 0.0, 0.024, -0.03, 1.026, 192.0, 0.0, 0.0, 0.0, 0.0, 0.0, 0.0, 0.0, 0.0, 0.0, 1.623604719347177E9, 0.0, 2021-06-13 13:18:39.347
250.0, -8671.538075392018, -3778.852972847578, 0.0, 0.0, 0.0, 0.0, 0.0, 0.0, 0.024, -0.03, 1.026, 192.0, 0.0, 0.0, 0.0, 0.0, 0.0, 0.0, 0.0, 0.0, 0.0, 1.623604719355129E9, 0.0, 2021-06-13 13:18:39.355
251.0, -8594.245743065565, -3786.27375200674, 0.0, 0.0, 0.0, 0.0, 0.0, 0.0, 0.024, -0.03, 1.026, 192.0, 0.0, 0.0, 0.0, 0.0, 0.0, 0.0, 0.0, 0.0, 0.0, 1.623604719355137E9, 0.0, 2021-06-13 13:18:39.355
252.0, -8742.840140204447, -3815.532185498737, 0.0, 0.0, 0.0, 0.0, 0.0, 0.0, 0.024, -0.03, 1.026, 192.0, 0.0, 0.0, 0.0, 0.0, 0.0, 0.0, 0.0, 0.0, 0.0, 1.623604719362251E9, 0.0, 2021-06-13 13:18:39.362
253.0, -8838.617365195438, -3834.0617816521863, 0.0, 0.0, 0.0, 0.0, 0.0, 0.0, 0.024, -0.03, 1.026, 192.0, 0.0, 0.0, 0.0, 0.0, 0.0, 0.0, 0.0, 0.0, 0.0, 1.623604719362258E9, 0.0, 2021-06-13 13:18:39.362
254.0, -8710.899497377814, -3837.079267153653, 0.0, 0.0, 0.0, 0.0, 0.0, 0.0, 0.028, -0.032, 1.028, 192.0, 0.0, 224.0, 255.0, 0.0, 32.0, 32.0, 0.0, 0.0, 0.0, 1.623604719369717E9, 0.0, 2021-06-13 13:18:39.369
255.0, -8598.403167534252, -3838.554482287703, 0.0, 0.0, 0.0, 0.0, 0.0, 0.0, 0.028, -0.032, 1.028, 192.0, 0.0, 0.0, 0.0, 0.0, 0.0, 0.0, 0.0, 0.0, 0.0, 1.623604719369724E9, 0.0, 2021-06-13 13:18:39.369
0.0, -8737.54277676854, -3853.8207237506776, 0.0, 0.0, 0.0, 0.0, 0.0, 0.0, 0.028, -0.032, 1.028, 192.0, 0.0, 0.0, 0.0, 0.0, 0.0, 0.0, 0.0, 0.0, 0.0, 1.623604719377662E9, 0.0, 2021-06-13 13:18:39.377
1.0, -8900.039958958621, -3876.9547792619205, 0.0, 0.0, 0.0, 0.0, 0.0, 0.0, 0.028, -0.032, 1.028, 192.0, 0.0, 0.0, 0.0, 0.0, 0.0, 0.0, 0.0, 0.0, 0.0, 1.623604719377669E9, 0.0, 2021-06-13 13:18:39.377
2.0, -8828.246155768175, -3881.358072919616, 0.0, 0.0, 0.0, 0.0, 0.0, 0.0, 0.028, -0.032, 1.028, 192.0, 0.0, 0.0, 0.0, 0.0, 0.0, 0.0, 0.0, 0.0, 0.0, 1.623604719385776E9, 0.0, 2021-06-13 13:18:39.385
3.0, -8795.344387929963, -3884.3085031877167, 0.0, 0.0, 0.0, 0.0, 0.0, 0.0, 0.028, -0.032, 1.028, 192.0, 0.0, 0.0, 0.0, 0.0, 0.0, 0.0, 0.0, 0.0, 0.0, 1.623604719385783E9, 0.0, 2021-06-13 13:18:39.385
4.0, -9053.060001499654, -3896.6690178715016, 0.0, 0.0, 0.0, 0.0, 0.0, 0.0, 0.028, -0.032, 1.028, 192.0, 0.0, 0.0, 0.0, 0.0, 0.0, 0.0, 0.0, 0.0, 0.0, 1.62360471939242E9, 0.0, 2021-06-13 13:18:39.392
5.0, -9388.716147985, -3918.819596626711, 0.0, 0.0, 0.0, 0.0, 0.0, 0.0, 0.028, -0.032, 1.028, 192.0, 0.0, 0.0, 0.0, 0.0, 0.0, 0.0, 0.0, 0.0, 0.0, 1.623604719392424E9, 0.0, 2021-06-13 13:18:39.392
6.0, -9585.6126648918, -3924.228718784895, 0.0, 0.0, 0.0, 0.0, 0.0, 0.0, 0.028, -0.032, 1.028, 192.0, 0.0, 0.0, 0.0, 0.0, 0.0, 0.0, 0.0, 0.0, 0.0, 1.623604719400309E9, 0.0, 2021-06-13 13:18:39.400
7.0, -9803.69863554223, -3918.841948371166, 0.0, 0.0, 0.0, 0.0, 0.0, 0.0, 0.028, -0.032, 1.028, 192.0, 0.0, 0.0, 0.0, 0.0, 0.0, 0.0, 0.0, 0.0, 0.0, 1.623604719400316E9, 0.0, 2021-06-13 13:18:39.400
8.0, -10109.738720624295, -3927.0897420751744, 0.0, 0.0, 0.0, 0.0, 0.0, 0.0, 0.02, -0.04, 1.024, 192.0, 0.0, 160.0, 254.0, 192.0, 32.0, 0.0, 0.0, 0.0, 0.0, 1.623604719407322E9, 0.0, 2021-06-13 13:18:39.407
9.0, -10315.553583568762, -3944.6358614725905, 0.0, 0.0, 0.0, 0.0, 0.0, 0.0, 0.02, -0.04, 1.024, 192.0, 0.0, 0.0, 0.0, 0.0, 0.0, 0.0, 0.0, 0.0, 0.0, 1.623604719415351E9, 0.0, 2021-06-13 13:18:39.415
10.0, -10099.546325152674, -3943.9206056500207, 0.0, 0.0, 0.0, 0.0, 0.0, 0.0, 0.02, -0.04, 1.024, 192.0, 0.0, 0.0, 0.0, 0.0, 0.0, 0.0, 0.0, 0.0, 0.0, 1.62360471941536E9, 0.0, 2021-06-13 13:18:39.415
11.0, -9684.787355039996, -3947.653346974057, 0.0, 0.0, 0.0, 0.0, 0.0, 0.0, 0.02, -0.04, 1.024, 192.0, 0.0, 0.0, 0.0, 0.0, 0.0, 0.0, 0.0, 0.0, 0.0, 1.623604719421978E9, 0.0, 2021-06-13 13:18:39.421
12.0, -9325.281897220839, -3952.3695650541267, 0.0, 0.0, 0.0, 0.0, 0.0, 0.0, 0.02, -0.04, 1.024, 192.0, 0.0, 0.0, 0.0, 0.0, 0.0, 0.0, 0.0, 0.0, 0.0, 1.623604719421984E9, 0.0, 2021-06-13 13:18:39.421
13.0, -9172.23950293535, -3962.07022214773, 0.0, 0.0, 0.0, 0.0, 0.0, 0.0, 0.02, -0.04, 1.024, 192.0, 0.0, 0.0, 0.0, 0.0, 0.0, 0.0, 0.0, 0.0, 0.0, 1.623604719429931E9, 0.0, 2021-06-13 13:18:39.429
14.0, -9058.133847491008, -3971.100326907674, 0.0, 0.0, 0.0, 0.0, 0.0, 0.0, 0.02, -0.04, 1.024, 192.0, 0.0, 0.0, 0.0, 0.0, 0.0, 0.0, 0.0, 0.0, 0.0, 1.623604719429938E9, 0.0, 2021-06-13 13:18:39.429
15.0, -8812.063492782532, -3967.322882094727, 0.0, 0.0, 0.0, 0.0, 0.0, 0.0, 0.02, -0.04, 1.024, 192.0, 0.0, 0.0, 0.0, 0.0, 0.0, 0.0, 0.0, 0.0, 0.0, 1.623604719437974E9, 0.0, 2021-06-13 13:18:39.437
16.0, -8761.1685706578, -3969.1110216511515, 0.0, 0.0, 0.0, 0.0, 0.0, 0.0, 0.02, -0.04, 1.024, 192.0, 0.0, 0.0, 0.0, 0.0, 0.0, 0.0, 0.0, 0.0, 0.0, 1.62360471943798E9, 0.0, 2021-06-13 13:18:39.437
17.0, -8944.922261824879, -3976.64355953259, 0.0, 0.0, 0.0, 0.0, 0.0, 0.0, 0.02, -0.04, 1.024, 192.0, 0.0, 0.0, 0.0, 0.0, 0.0, 0.0, 0.0, 0.0, 0.0, 1.623604719445112E9, 0.0, 2021-06-13 13:18:39.445
18.0, -9014.905573714444, -3978.4093473445596, 0.0, 0.0, 0.0, 0.0, 0.0, 0.0, 0.022, -0.038, 1.024, 192.0, 0.0, 176.0, 254.0, 208.0, 32.0, 0.0, 0.0, 0.0, 0.0, 1.623604719445118E9, 0.0, 2021-06-13 13:18:39.445
19.0, -8864.411278296862, -3984.779594514322, 0.0, 0.0, 0.0, 0.0, 0.0, 0.0, 0.022, -0.038, 1.024, 192.0, 0.0, 0.0, 0.0, 0.0, 0.0, 0.0, 0.0, 0.0, 0.0, 1.623604719452621E9, 0.0, 2021-06-13 13:18:39.452
20.0, -8770.064564951012, -3984.4666700919474, 0.0, 0.0, 0.0, 0.0, 0.0, 0.0, 0.022, -0.038, 1.024, 192.0, 0.0, 0.0, 0.0, 0.0, 0.0, 0.0, 0.0, 0.0, 0.0, 1.623604719452628E9, 0.0, 2021-06-13 13:18:39.452
21.0, -8901.693988048315, -3984.779594514322, 0.0, 0.0, 0.0, 0.0, 0.0, 0.0, 0.022, -0.038, 1.024, 192.0, 0.0, 0.0, 0.0, 0.0, 0.0, 0.0, 0.0, 0.0, 0.0, 1.623604719460662E9, 0.0, 2021-06-13 13:18:39.460
22.0, -9002.54505903066, -3992.446242862492, 0.0, 0.0, 0.0, 0.0, 0.0, 0.0, 0.022, -0.038, 1.024, 192.0, 0.0, 0.0, 0.0, 0.0, 0.0, 0.0, 0.0, 0.0, 0.0, 1.623604719460668E9, 0.0, 2021-06-13 13:18:39.460
23.0, -8875.967130180255, -3989.8310887612215, 0.0, 0.0, 0.0, 0.0, 0.0, 0.0, 0.022, -0.038, 1.024, 192.0, 0.0, 0.0, 0.0, 0.0, 0.0, 0.0, 0.0, 0.0, 0.0, 1.62360471946771E9, 0.0, 2021-06-13 13:18:39.467
24.0, -8759.223968890186, -3980.5998183011793, 0.0, 0.0, 0.0, 0.0, 0.0, 0.0, 0.022, -0.038, 1.024, 192.0, 0.0, 0.0, 0.0, 0.0, 0.0, 0.0, 0.0, 0.0, 0.0, 1.623604719474327E9, 0.0, 2021-06-13 13:18:39.474
25.0, -8875.788316224613, -3981.7844607573106, 0.0, 0.0, 0.0, 0.0, 0.0, 0.0, 0.022, -0.038, 1.024, 192.0, 0.0, 0.0, 0.0, 0.0, 0.0, 0.0, 0.0, 0.0, 0.0, 1.623604719474334E9, 0.0, 2021-06-13 13:18:39.474
26.0, -9003.103852642042, -3994.390844630104, 0.0, 0.0, 0.0, 0.0, 0.0, 0.0, 0.022, -0.038, 1.024, 192.0, 0.0, 0.0, 0.0, 0.0, 0.0, 0.0, 0.0, 0.0, 0.0, 1.623604719482329E9, 0.0, 2021-06-13 13:18:39.482
27.0, -8913.518060865172, -4003.3091906677714, 0.0, 0.0, 0.0, 0.0, 0.0, 0.0, 0.022, -0.038, 1.024, 192.0, 0.0, 0.0, 0.0, 0.0, 0.0, 0.0, 0.0, 0.0, 0.0, 1.623604719482337E9, 0.0, 2021-06-13 13:18:39.482
28.0, -8777.239474921165, -3998.2129929319613, 0.0, 0.0, 0.0, 0.0, 0.0, 0.0, 0.026000000000000002, -0.036000000000000004, 1.024, 192.0, 0.0, 208.0, 254.0, 224.0, 32.0, 0.0, 0.0, 0.0, 0.0, 1.623604719490203E9, 0.0, 2021-06-13 13:18:39.490
29.0, -8855.60469098147, -4015.6250018626456, 0.0, 0.0, 0.0, 0.0, 0.0, 0.0, 0.026000000000000002, -0.036000000000000004, 1.024, 192.0, 0.0, 0.0, 0.0, 0.0, 0.0, 0.0, 0.0, 0.0, 0.0, 1.623604719490209E9, 0.0, 2021-06-13 13:18:39.490
30.0, -9009.272934111706, -4037.842635851221, 0.0, 0.0, 0.0, 0.0, 0.0, 0.0, 0.026000000000000002, -0.036000000000000004, 1.024, 192.0, 0.0, 0.0, 0.0, 0.0, 0.0, 0.0, 0.0, 0.0, 0.0, 1.623604719497503E9, 0.0, 2021-06-13 13:18:39.497
31.0, -8965.418811490395, -4037.8202841067655, 0.0, 0.0, 0.0, 0.0, 0.0, 0.0, 0.026000000000000002, -0.036000000000000004, 1.024, 192.0, 0.0, 0.0, 0.0, 0.0, 0.0, 0.0, 0.0, 0.0, 0.0, 1.623604719497509E9, 0.0, 2021-06-13 13:18:39.497
32.0, -8815.46095793974, -4038.0214498068635, 0.0, 0.0, 0.0, 0.0, 0.0, 0.0, 0.026000000000000002, -0.036000000000000004, 1.024, 192.0, 0.0, 0.0, 0.0, 0.0, 0.0, 0.0, 0.0, 0.0, 0.0, 1.623604719504947E9, 0.0, 2021-06-13 13:18:39.504
33.0, -8856.364650292951, -4042.13417078664, 0.0, 0.0, 0.0, 0.0, 0.0, 0.0, 0.026000000000000002, -0.036000000000000004, 1.024, 192.0, 0.0, 0.0, 0.0, 0.0, 0.0, 0.0, 0.0, 0.0, 0.0, 1.623604719504954E9, 0.0, 2021-06-13 13:18:39.504
34.0, -9021.298172628662, -4066.3634617761927, 0.0, 0.0, 0.0, 0.0, 0.0, 0.0, 0.026000000000000002, -0.036000000000000004, 1.024, 192.0, 0.0, 0.0, 0.0, 0.0, 0.0, 0.0, 0.0, 0.0, 0.0, 1.623604719512938E9, 0.0, 2021-06-13 13:18:39.512
35.0, -9013.586820791581, -4075.0135868803964, 0.0, 0.0, 0.0, 0.0, 0.0, 0.0, 0.026000000000000002, -0.036000000000000004, 1.024, 192.0, 0.0, 0.0, 0.0, 0.0, 0.0, 0.0, 0.0, 0.0, 0.0, 1.623604719512948E9, 0.0, 2021-06-13 13:18:39.512
36.0, -8857.214016582253, -4054.8523133817093, 0.0, 0.0, 0.0, 0.0, 0.0, 0.0, 0.026000000000000002, -0.036000000000000004, 1.024, 192.0, 0.0, 0.0, 0.0, 0.0, 0.0, 0.0, 0.0, 0.0, 0.0, 1.62360471952098E9, 0.0, 2021-06-13 13:18:39.520
37.0, -8854.040068869599, -4058.070964583274, 0.0, 0.0, 0.0, 0.0, 0.0, 0.0, 0.024, -0.032, 1.02, 192.0, 0.0, 192.0, 255.0, 0.0, 31.0, 224.0, 0.0, 0.0, 0.0, 1.623604719520988E9, 0.0, 2021-06-13 13:18:39.520
38.0, -9022.661629040436, -4078.4557555265137, 0.0, 0.0, 0.0, 0.0, 0.0, 0.0, 0.024, -0.032, 1.02, 192.0, 0.0, 0.0, 0.0, 0.0, 0.0, 0.0, 0.0, 0.0, 0.0, 1.623604719527054E9, 0.0, 2021-06-13 13:18:39.527
39.0, -9056.36805967904, -4086.4353282970583, 0.0, 0.0, 0.0, 0.0, 0.0, 0.0, 0.024, -0.032, 1.02, 192.0, 0.0, 0.0, 0.0, 0.0, 0.0, 0.0, 0.0, 0.0, 0.0, 1.623604719534581E9, 0.0, 2021-06-13 13:18:39.534
40.0, -8909.248877674208, -4079.349825304726, 0.0, 0.0, 0.0, 0.0, 0.0, 0.0, 0.024, -0.032, 1.02, 192.0, 0.0, 0.0, 0.0, 0.0, 0.0, 0.0, 0.0, 0.0, 0.0, 1.623604719534587E9, 0.0, 2021-06-13 13:18:39.534
41.0, -8857.593996237993, -4068.218656565983, 0.0, 0.0, 0.0, 0.0, 0.0, 0.0, 0.024, -0.032, 1.02, 192.0, 0.0, 0.0, 0.0, 0.0, 0.0, 0.0, 0.0, 0.0, 0.0, 1.62360471954264E9, 0.0, 2021-06-13 13:18:39.542
42.0, -9011.68692251288, -4071.861990912198, 0.0, 0.0, 0.0, 0.0, 0.0, 0.0, 0.024, -0.032, 1.02, 192.0, 0.0, 0.0, 0.0, 0.0, 0.0, 0.0, 0.0, 0.0, 0.0, 1.623604719542647E9, 0.0, 2021-06-13 13:18:39.542
43.0, -9084.441850714904, -4077.8522584262205, 0.0, 0.0, 0.0, 0.0, 0.0, 0.0, 0.024, -0.032, 1.02, 192.0, 0.0, 0.0, 0.0, 0.0, 0.0, 0.0, 0.0, 0.0, 0.0, 1.623604719550671E9, 0.0, 2021-06-13 13:18:39.550
44.0, -8955.53934044115, -4072.644301968134, 0.0, 0.0, 0.0, 0.0, 0.0, 0.0, 0.024, -0.032, 1.02, 192.0, 0.0, 0.0, 0.0, 0.0, 0.0, 0.0, 0.0, 0.0, 0.0, 1.623604719550678E9, 0.0, 2021-06-13 13:18:39.550
45.0, -8873.128458634432, -4069.0456711108295, 0.0, 0.0, 0.0, 0.0, 0.0, 0.0, 0.024, -0.032, 1.02, 192.0, 0.0, 0.0, 0.0, 0.0, 0.0, 0.0, 0.0, 0.0, 0.0, 1.623604719557227E9, 0.0, 2021-06-13 13:18:39.557
46.0, -9002.96974217531, -4088.089357386751, 0.0, 0.0, 0.0, 0.0, 0.0, 0.0, 0.024, -0.032, 1.02, 192.0, 0.0, 0.0, 0.0, 0.0, 0.0, 0.0, 0.0, 0.0, 0.0, 1.623604719557234E9, 0.0, 2021-06-13 13:18:39.557
47.0, -9106.525374236748, -4098.728787747477, 0.0, 0.0, 0.0, 0.0, 0.0, 0.0, 0.016, -0.036000000000000004, 1.026, 192.0, 0.0, 128.0, 254.0, 224.0, 32.0, 16.0, 0.0, 0.0, 0.0, 1.623604719565167E9, 0.0, 2021-06-13 13:18:39.565
48.0, -9000.10871888503, -4090.5256975323796, 0.0, 0.0, 0.0, 0.0, 0.0, 0.0, 0.016, -0.036000000000000004, 1.026, 192.0, 0.0, 0.0, 0.0, 0.0, 0.0, 0.0, 0.0, 0.0, 0.0, 1.623604719565174E9, 0.0, 2021-06-13 13:18:39.565
49.0, -8881.75623199418, -4087.0388253973515, 0.0, 0.0, 0.0, 0.0, 0.0, 0.0, 0.016, -0.036000000000000004, 1.026, 192.0, 0.0, 0.0, 0.0, 0.0, 0.0, 0.0, 0.0, 0.0, 0.0, 1.623604719573224E9, 0.0, 2021-06-13 13:18:39.573
50.0, -8985.49067801126, -4101.075720915284, 0.0, 0.0, 0.0, 0.0, 0.0, 0.0, 0.016, -0.036000000000000004, 1.026, 192.0, 0.0, 0.0, 0.0, 0.0, 0.0, 0.0, 0.0, 0.0, 0.0, 1.62360471957323E9, 0.0, 2021-06-13 13:18:39.573
51.0, -9119.087054620632, -4113.927973977086, 0.0, 0.0, 0.0, 0.0, 0.0, 0.0, 0.016, -0.036000000000000004, 1.026, 192.0, 0.0, 0.0, 0.0, 0.0, 0.0, 0.0, 0.0, 0.0, 0.0, 1.623604719580468E9, 0.0, 2021-06-13 13:18:39.580
52.0, -9047.31560317464, -4108.9882384524635, 0.0, 0.0, 0.0, 0.0, 0.0, 0.0, 0.016, -0.036000000000000004, 1.026, 192.0, 0.0, 0.0, 0.0, 0.0, 0.0, 0.0, 0.0, 0.0, 0.0, 1.623604719580473E9, 0.0, 2021-06-13 13:18:39.580
53.0, -8913.629819587448, -4094.057273156318, 0.0, 0.0, 0.0, 0.0, 0.0, 0.0, 0.016, -0.036000000000000004, 1.026, 192.0, 0.0, 0.0, 0.0, 0.0, 0.0, 0.0, 0.0, 0.0, 0.0, 1.623604719586953E9, 0.0, 2021-06-13 13:18:39.586
54.0, -8981.355605287028, -4092.023264410885, 0.0, 0.0, 0.0, 0.0, 0.0, 0.0, 0.016, -0.036000000000000004, 1.026, 192.0, 0.0, 0.0, 0.0, 0.0, 0.0, 0.0, 0.0, 0.0, 0.0, 1.62360471958696E9, 0.0, 2021-06-13 13:18:39.586
55.0, -9135.13560713954, -4105.166090150606, 0.0, 0.0, 0.0, 0.0, 0.0, 0.0, 0.016, -0.036000000000000004, 1.026, 192.0, 0.0, 0.0, 0.0, 0.0, 0.0, 0.0, 0.0, 0.0, 0.0, 1.623604719594887E9, 0.0, 2021-06-13 13:18:39.594
56.0, -9101.876211390045, -4105.501366317435, 0.0, 0.0, 0.0, 0.0, 0.0, 0.0, 0.016, -0.036000000000000004, 1.026, 192.0, 0.0, 0.0, 0.0, 0.0, 0.0, 0.0, 0.0, 0.0, 0.0, 1.623604719602882E9, 0.0, 2021-06-13 13:18:39.602
57.0, -8957.43923871985, -4098.147642391639, 0.0, 0.0, 0.0, 0.0, 0.0, 0.0, 0.02, -0.034, 1.024, 192.0, 0.0, 160.0, 254.0, 240.0, 32.0, 0.0, 0.0, 0.0, 0.0, 1.623604719602887E9, 0.0, 2021-06-13 13:18:39.602
58.0, -8985.647140222447, -4103.981447694475, 0.0, 0.0, 0.0, 0.0, 0.0, 0.0, 0.02, -0.034, 1.024, 192.0, 0.0, 0.0, 0.0, 0.0, 0.0, 0.0, 0.0, 0.0, 0.0, 1.623604719609949E9, 0.0, 2021-06-13 13:18:39.609
59.0, -9147.00438344531, -4114.263250143916, 0.0, 0.0, 0.0, 0.0, 0.0, 0.0, 0.02, -0.034, 1.024, 192.0, 0.0, 0.0, 0.0, 0.0, 0.0, 0.0, 0.0, 0.0, 0.0, 1.623604719609956E9, 0.0, 2021-06-13 13:18:39.609
60.0, -9155.453342849416, -4113.302125132337, 0.0, 0.0, 0.0, 0.0, 0.0, 0.0, 0.02, -0.034, 1.024, 192.0, 0.0, 0.0, 0.0, 0.0, 0.0, 0.0, 0.0, 0.0, 0.0, 1.623604719617565E9, 0.0, 2021-06-13 13:18:39.617
61.0, -9005.406082320938, -4092.090319644251, 0.0, 0.0, 0.0, 0.0, 0.0, 0.0, 0.02, -0.034, 1.024, 192.0, 0.0, 0.0, 0.0, 0.0, 0.0, 0.0, 0.0, 0.0, 0.0, 1.623604719617572E9, 0.0, 2021-06-13 13:18:39.617
62.0, -8992.933808914877, -4091.3080085883153, 0.0, 0.0, 0.0, 0.0, 0.0, 0.0, 0.02, -0.034, 1.024, 192.0, 0.0, 0.0, 0.0, 0.0, 0.0, 0.0, 0.0, 0.0, 0.0, 1.623604719625504E9, 0.0, 2021-06-13 13:18:39.625
63.0, -9152.748781770324, -4095.867764457198, 0.0, 0.0, 0.0, 0.0, 0.0, 0.0, 0.02, -0.034, 1.024, 192.0, 0.0, 0.0, 0.0, 0.0, 0.0, 0.0, 0.0, 0.0, 0.0, 1.623604719625513E9, 0.0, 2021-06-13 13:18:39.625
64.0, -9198.323988714694, -4102.841508727254, 0.0, 0.0, 0.0, 0.0, 0.0, 0.0, 0.02, -0.034, 1.024, 192.0, 0.0, 0.0, 0.0, 0.0, 0.0, 0.0, 0.0, 0.0, 0.0, 1.623604719632647E9, 0.0, 2021-06-13 13:18:39.632
65.0, -9057.686812601902, -4095.8454127127425, 0.0, 0.0, 0.0, 0.0, 0.0, 0.0, 0.02, -0.034, 1.024, 192.0, 0.0, 0.0, 0.0, 0.0, 0.0, 0.0, 0.0, 0.0, 0.0, 1.623604719632654E9, 0.0, 2021-06-13 13:18:39.632
66.0, -9003.282666597685, -4092.4255958110807, 0.0, 0.0, 0.0, 0.0, 0.0, 0.0, 0.02, -0.034, 1.024, 192.0, 0.0, 0.0, 0.0, 0.0, 0.0, 0.0, 0.0, 0.0, 0.0, 1.623604719640077E9, 0.0, 2021-06-13 13:18:39.640
67.0, -9151.742953269835, -4109.09999717474, 0.0, 0.0, 0.0, 0.0, 0.0, 0.0, 0.014, -0.036000000000000004, 1.018, 192.0, 0.0, 112.0, 254.0, 224.0, 31.0, 208.0, 0.0, 0.0, 0.0, 1.623604719640083E9, 0.0, 2021-06-13 13:18:39.640
68.0, -9233.706800187445, -4114.263250143916, 0.0, 0.0, 0.0, 0.0, 0.0, 0.0, 0.014, -0.036000000000000004, 1.018, 192.0, 0.0, 0.0, 0.0, 0.0, 0.0, 0.0, 0.0, 0.0, 0.0, 1.623604719648219E9, 0.0, 2021-06-13 13:18:39.648
69.0, -9111.286295805729, -4110.776378008888, 0.0, 0.0, 0.0, 0.0, 0.0, 0.0, 0.014, -0.036000000000000004, 1.018, 192.0, 0.0, 0.0, 0.0, 0.0, 0.0, 0.0, 0.0, 0.0, 0.0, 1.623604719648227E9, 0.0, 2021-06-13 13:18:39.648
70.0, -9016.894878970967, -4105.255497128427, 0.0, 0.0, 0.0, 0.0, 0.0, 0.0, 0.014, -0.036000000000000004, 1.018, 192.0, 0.0, 0.0, 0.0, 0.0, 0.0, 0.0, 0.0, 0.0, 0.0, 1.62360471965522E9, 0.0, 2021-06-13 13:18:39.655
71.0, -9137.482540307348, -4109.904659975131, 0.0, 0.0, 0.0, 0.0, 0.0, 0.0, 0.014, -0.036000000000000004, 1.018, 192.0, 0.0, 0.0, 0.0, 0.0, 0.0, 0.0, 0.0, 0.0, 0.0, 1.62360471966232E9, 0.0, 2021-06-13 13:18:39.662
72.0, -9248.034268383297, -4108.407093096625, 0.0, 0.0, 0.0, 0.0, 0.0, 0.0, 0.014, -0.036000000000000004, 1.018, 192.0, 0.0, 0.0, 0.0, 0.0, 0.0, 0.0, 0.0, 0.0, 0.0, 1.623604719662326E9, 0.0, 2021-06-13 13:18:39.662
73.0, -9147.607880545602, -4091.4644707995026, 0.0, 0.0, 0.0, 0.0, 0.0, 0.0, 0.014, -0.036000000000000004, 1.018, 192.0, 0.0, 0.0, 0.0, 0.0, 0.0, 0.0, 0.0, 0.0, 0.0, 1.623604719669927E9, 0.0, 2021-06-13 13:18:39.669
74.0, -9020.761730761735, -4090.4586422990137, 0.0, 0.0, 0.0, 0.0, 0.0, 0.0, 0.014, -0.036000000000000004, 1.018, 192.0, 0.0, 0.0, 0.0, 0.0, 0.0, 0.0, 0.0, 0.0, 0.0, 1.623604719669935E9, 0.0, 2021-06-13 13:18:39.669
75.0, -9108.201755070897, -4110.977543708986, 0.0, 0.0, 0.0, 0.0, 0.0, 0.0, 0.014, -0.036000000000000004, 1.018, 192.0, 0.0, 0.0, 0.0, 0.0, 0.0, 0.0, 0.0, 0.0, 0.0, 1.62360471967786E9, 0.0, 2021-06-13 13:18:39.677
76.0, -9240.747599690867, -4125.126197949195, 0.0, 0.0, 0.0, 0.0, 0.0, 0.0, 0.014, -0.036000000000000004, 1.018, 192.0, 0.0, 0.0, 0.0, 0.0, 0.0, 0.0, 0.0, 0.0, 0.0, 1.623604719677866E9, 0.0, 2021-06-13 13:18:39.677
77.0, -9170.786639545757, -4116.00668621143, 0.0, 0.0, 0.0, 0.0, 0.0, 0.0, 0.018000000000000002, -0.034, 1.02, 192.0, 0.0, 144.0, 254.0, 240.0, 31.0, 224.0, 0.0, 0.0, 0.0, 1.623604719685832E9, 0.0, 2021-06-13 13:18:39.685
78.0, -9020.962896461833, -4098.6617325141115, 0.0, 0.0, 0.0, 0.0, 0.0, 0.0, 0.018000000000000002, -0.034, 1.02, 192.0, 0.0, 0.0, 0.0, 0.0, 0.0, 0.0, 0.0, 0.0, 0.0, 1.623604719685839E9, 0.0, 2021-06-13 13:18:39.685
79.0, -9063.945301049389, -4104.517889561402, 0.0, 0.0, 0.0, 0.0, 0.0, 0.0, 0.018000000000000002, -0.034, 1.02, 192.0, 0.0, 0.0, 0.0, 0.0, 0.0, 0.0, 0.0, 0.0, 0.0, 1.623604719692467E9, 0.0, 2021-06-13 13:18:39.692
80.0, -9201.296770727251, -4112.586869309767, 0.0, 0.0, 0.0, 0.0, 0.0, 0.0, 0.018000000000000002, -0.034, 1.02, 192.0, 0.0, 0.0, 0.0, 0.0, 0.0, 0.0, 0.0, 0.0, 0.0, 1.623604719692474E9, 0.0, 2021-06-13 13:18:39.692
81.0, -9154.33575562665, -4111.581040809278, 0.0, 0.0, 0.0, 0.0, 0.0, 0.0, 0.018000000000000002, -0.034, 1.02, 192.0, 0.0, 0.0, 0.0, 0.0, 0.0, 0.0, 0.0, 0.0, 0.0, 1.623604719700529E9, 0.0, 2021-06-13 13:18:39.700
82.0, -8972.526666227182, -4103.959095950019, 0.0, 0.0, 0.0, 0.0, 0.0, 0.0, 0.018000000000000002, -0.034, 1.02, 192.0, 0.0, 0.0, 0.0, 0.0, 0.0, 0.0, 0.0, 0.0, 0.0, 1.623604719700536E9, 0.0, 2021-06-13 13:18:39.700
83.0, -8952.320689239585, -4112.430407098581, 0.0, 0.0, 0.0, 0.0, 0.0, 0.0, 0.018000000000000002, -0.034, 1.02, 192.0, 0.0, 0.0, 0.0, 0.0, 0.0, 0.0, 0.0, 0.0, 0.0, 1.623604719708359E9, 0.0, 2021-06-13 13:18:39.708
84.0, -9083.391318725506, -4123.047485714851, 0.0, 0.0, 0.0, 0.0, 0.0, 0.0, 0.018000000000000002, -0.034, 1.02, 192.0, 0.0, 0.0, 0.0, 0.0, 0.0, 0.0, 0.0, 0.0, 0.0, 1.623604719708366E9, 0.0, 2021-06-13 13:18:39.708
85.0, -9066.739269106301, -4126.400247383148, 0.0, 0.0, 0.0, 0.0, 0.0, 0.0, 0.018000000000000002, -0.034, 1.02, 192.0, 0.0, 0.0, 0.0, 0.0, 0.0, 0.0, 0.0, 0.0, 0.0, 1.62360471971556E9, 0.0, 2021-06-13 13:18:39.715
86.0, -8883.857295972979, -4122.1981194255495, 0.0, 0.0, 0.0, 0.0, 0.0, 0.0, 0.018000000000000002, -0.034, 1.02, 192.0, 0.0, 0.0, 0.0, 0.0, 0.0, 0.0, 0.0, 0.0, 0.0, 1.623604719722137E9, 0.0, 2021-06-13 13:18:39.722
87.0, -8825.943926089278, -4111.513985575913, 0.0, 0.0, 0.0, 0.0, 0.0, 0.0, 0.018000000000000002, -0.036000000000000004, 1.026, 192.0, 0.0, 144.0, 254.0, 224.0, 32.0, 16.0, 0.0, 0.0, 0.0, 1.623604719722143E9, 0.0, 2021-06-13 13:18:39.722
88.0, -8955.740506141246, -4125.528529349391, 0.0, 0.0, 0.0, 0.0, 0.0, 0.0, 0.018000000000000002, -0.036000000000000004, 1.026, 192.0, 0.0, 0.0, 0.0, 0.0, 0.0, 0.0, 0.0, 0.0, 0.0, 1.623604719730051E9, 0.0, 2021-06-13 13:18:39.730
89.0, -8981.646177964947, -4135.9891457544745, 0.0, 0.0, 0.0, 0.0, 0.0, 0.0, 0.018000000000000002, -0.036000000000000004, 1.026, 192.0, 0.0, 0.0, 0.0, 0.0, 0.0, 0.0, 0.0, 0.0, 0.0, 1.623604719730058E9, 0.0, 2021-06-13 13:18:39.730
90.0, -8819.573678919516, -4129.797712540354, 0.0, 0.0, 0.0, 0.0, 0.0, 0.0, 0.018000000000000002, -0.036000000000000004, 1.026, 192.0, 0.0, 0.0, 0.0, 0.0, 0.0, 0.0, 0.0, 0.0, 0.0, 1.623604719738057E9, 0.0, 2021-06-13 13:18:39.738
91.0, -8730.68079122076, -4117.504253089935, 0.0, 0.0, 0.0, 0.0, 0.0, 0.0, 0.018000000000000002, -0.036000000000000004, 1.026, 192.0, 0.0, 0.0, 0.0, 0.0, 0.0, 0.0, 0.0, 0.0, 0.0, 1.623604719738064E9, 0.0, 2021-06-13 13:18:39.738
92.0, -8861.66201372886, -4121.2593461584265, 0.0, 0.0, 0.0, 0.0, 0.0, 0.0, 0.018000000000000002, -0.036000000000000004, 1.026, 192.0, 0.0, 0.0, 0.0, 0.0, 0.0, 0.0, 0.0, 0.0, 0.0, 1.623604719745173E9, 0.0, 2021-06-13 13:18:39.745
93.0, -8939.826064089068, -4133.977488753497, 0.0, 0.0, 0.0, 0.0, 0.0, 0.0, 0.018000000000000002, -0.036000000000000004, 1.026, 192.0, 0.0, 0.0, 0.0, 0.0, 0.0, 0.0, 0.0, 0.0, 0.0, 1.623604719745177E9, 0.0, 2021-06-13 13:18:39.745
94.0, -8807.079053768999, -4131.630555585689, 0.0, 0.0, 0.0, 0.0, 0.0, 0.0, 0.018000000000000002, -0.036000000000000004, 1.026, 192.0, 0.0, 0.0, 0.0, 0.0, 0.0, 0.0, 0.0, 0.0, 0.0, 1.623604719752718E9, 0.0, 2021-06-13 13:18:39.752
95.0, -8693.24161925812, -4121.48286360298, 0.0, 0.0, 0.0, 0.0, 0.0, 0.0, 0.018000000000000002, -0.036000000000000004, 1.026, 192.0, 0.0, 0.0, 0.0, 0.0, 0.0, 0.0, 0.0, 0.0, 0.0, 1.623604719752724E9, 0.0, 2021-06-13 13:18:39.752
96.0, -8806.341446201974, -4130.445913129558, 0.0, 0.0, 0.0, 0.0, 0.0, 0.0, 0.018000000000000002, -0.036000000000000004, 1.026, 192.0, 0.0, 0.0, 0.0, 0.0, 0.0, 0.0, 0.0, 0.0, 0.0, 1.623604719760675E9, 0.0, 2021-06-13 13:18:39.760
97.0, -8925.185671470843, -4134.871558531709, 0.0, 0.0, 0.0, 0.0, 0.0, 0.0, 0.012, -0.028, 1.022, 192.0, 0.0, 96.0, 255.0, 32.0, 31.0, 240.0, 0.0, 0.0, 0.0, 1.623604719760681E9, 0.0, 2021-06-13 13:18:39.760
98.0, -8824.803987122057, -4124.567404337812, 0.0, 0.0, 0.0, 0.0, 0.0, 0.0, 0.012, -0.028, 1.022, 192.0, 0.0, 0.0, 0.0, 0.0, 0.0, 0.0, 0.0, 0.0, 0.0, 1.623604719767924E9, 0.0, 2021-06-13 13:18:39.767
99.0, -8688.346587222408, -4122.868671759209, 0.0, 0.0, 0.0, 0.0, 0.0, 0.0, 0.012, -0.028, 1.022, 192.0, 0.0, 0.0, 0.0, 0.0, 0.0, 0.0, 0.0, 0.0, 0.0, 1.62360471976793E9, 0.0, 2021-06-13 13:18:39.767
100.0, -8770.422192862296, -4126.422599127603, 0.0, 0.0, 0.0, 0.0, 0.0, 0.0, 0.012, -0.028, 1.022, 192.0, 0.0, 0.0, 0.0, 0.0, 0.0, 0.0, 0.0, 0.0, 0.0, 1.623604719774943E9, 0.0, 2021-06-13 13:18:39.774
101.0, -8915.730883566248, -4133.932785264586, 0.0, 0.0, 0.0, 0.0, 0.0, 0.0, 0.012, -0.028, 1.022, 192.0, 0.0, 0.0, 0.0, 0.0, 0.0, 0.0, 0.0, 0.0, 0.0, 1.623604719783136E9, 0.0, 2021-06-13 13:18:39.783
102.0, -8857.012850882156, -4141.375916168203, 0.0, 0.0, 0.0, 0.0, 0.0, 0.0, 0.012, -0.028, 1.022, 192.0, 0.0, 0.0, 0.0, 0.0, 0.0, 0.0, 0.0, 0.0, 0.0, 1.623604719783144E9, 0.0, 2021-06-13 13:18:39.783
103.0, -8702.405834484796, -4133.798674797854, 0.0, 0.0, 0.0, 0.0, 0.0, 0.0, 0.012, -0.028, 1.022, 192.0, 0.0, 0.0, 0.0, 0.0, 0.0, 0.0, 0.0, 0.0, 0.0, 1.623604719789617E9, 0.0, 2021-06-13 13:18:39.789
104.0, -8745.142369883344, -4126.914337505619, 0.0, 0.0, 0.0, 0.0, 0.0, 0.0, 0.012, -0.028, 1.022, 192.0, 0.0, 0.0, 0.0, 0.0, 0.0, 0.0, 0.0, 0.0, 0.0, 1.623604719789623E9, 0.0, 2021-06-13 13:18:39.789
105.0, -8903.213906671275, -4130.423561385102, 0.0, 0.0, 0.0, 0.0, 0.0, 0.0, 0.012, -0.028, 1.022, 192.0, 0.0, 0.0, 0.0, 0.0, 0.0, 0.0, 0.0, 0.0, 0.0, 1.623604719797692E9, 0.0, 2021-06-13 13:18:39.797
106.0, -8885.645435529404, -4132.39051489717, 0.0, 0.0, 0.0, 0.0, 0.0, 0.0, 0.014, -0.038, 1.026, 192.0, 0.0, 112.0, 254.0, 208.0, 32.0, 16.0, 0.0, 0.0, 0.0, 1.623604719797699E9, 0.0, 2021-06-13 13:18:39.797
107.0, -8727.260974319099, -4127.942517750564, 0.0, 0.0, 0.0, 0.0, 0.0, 0.0, 0.014, -0.038, 1.026, 192.0, 0.0, 0.0, 0.0, 0.0, 0.0, 0.0, 0.0, 0.0, 0.0, 1.623604719805643E9, 0.0, 2021-06-13 13:18:39.805
108.0, -8725.159910340299, -4119.046523457351, 0.0, 0.0, 0.0, 0.0, 0.0, 0.0, 0.014, -0.038, 1.026, 192.0, 0.0, 0.0, 0.0, 0.0, 0.0, 0.0, 0.0, 0.0, 0.0, 1.62360471980565E9, 0.0, 2021-06-13 13:18:39.805
109.0, -8888.774679753147, -4127.696648561555, 0.0, 0.0, 0.0, 0.0, 0.0, 0.0, 0.014, -0.038, 1.026, 192.0, 0.0, 0.0, 0.0, 0.0, 0.0, 0.0, 0.0, 0.0, 0.0, 1.623604719812668E9, 0.0, 2021-06-13 13:18:39.812
110.0, -8910.9029067639, -4131.250575929949, 0.0, 0.0, 0.0, 0.0, 0.0, 0.0, 0.014, -0.038, 1.026, 192.0, 0.0, 0.0, 0.0, 0.0, 0.0, 0.0, 0.0, 0.0, 0.0, 1.623604719812672E9, 0.0, 2021-06-13 13:18:39.812
111.0, -8756.318242110998, -4120.186462424572, 0.0, 0.0, 0.0, 0.0, 0.0, 0.0, 0.014, -0.038, 1.026, 192.0, 0.0, 0.0, 0.0, 0.0, 0.0, 0.0, 0.0, 0.0, 0.0, 1.623604719820248E9, 0.0, 2021-06-13 13:18:39.820
112.0, -8713.022913101067, -4116.297258889349, 0.0, 0.0, 0.0, 0.0, 0.0, 0.0, 0.014, -0.038, 1.026, 192.0, 0.0, 0.0, 0.0, 0.0, 0.0, 0.0, 0.0, 0.0, 0.0, 1.623604719820253E9, 0.0, 2021-06-13 13:18:39.820
113.0, -8872.100278389487, -4133.217529442016, 0.0, 0.0, 0.0, 0.0, 0.0, 0.0, 0.014, -0.038, 1.026, 192.0, 0.0, 0.0, 0.0, 0.0, 0.0, 0.0, 0.0, 0.0, 0.0, 1.623604719828212E9, 0.0, 2021-06-13 13:18:39.828
114.0, -8935.690991364836, -4123.33805839277, 0.0, 0.0, 0.0, 0.0, 0.0, 0.0, 0.014, -0.038, 1.026, 192.0, 0.0, 0.0, 0.0, 0.0, 0.0, 0.0, 0.0, 0.0, 0.0, 1.623604719828218E9, 0.0, 2021-06-13 13:18:39.828
115.0, -8793.332730928985, -4091.732691732966, 0.0, 0.0, 0.0, 0.0, 0.0, 0.0, 0.014, -0.038, 1.026, 192.0, 0.0, 0.0, 0.0, 0.0, 0.0, 0.0, 0.0, 0.0, 0.0, 1.623604719835379E9, 0.0, 2021-06-13 13:18:39.835
116.0, -8712.77704391206, -4084.222505595983, 0.0, 0.0, 0.0, 0.0, 0.0, 0.0, 0.026000000000000002, -0.038, 1.02, 192.0, 0.0, 208.0, 254.0, 208.0, 31.0, 224.0, 0.0, 0.0, 0.0, 1.623604719835385E9, 0.0, 2021-06-13 13:18:39.835
117.0, -8854.531807247617, -4098.0135319249075, 0.0, 0.0, 0.0, 0.0, 0.0, 0.0, 0.026000000000000002, -0.038, 1.02, 192.0, 0.0, 0.0, 0.0, 0.0, 0.0, 0.0, 0.0, 0.0, 0.0, 1.623604719842369E9, 0.0, 2021-06-13 13:18:39.842
118.0, -8954.935843340856, -4113.168014665605, 0.0, 0.0, 0.0, 0.0, 0.0, 0.0, 0.026000000000000002, -0.038, 1.02, 192.0, 0.0, 0.0, 0.0, 0.0, 0.0, 0.0, 0.0, 0.0, 0.0, 1.623604719849854E9, 0.0, 2021-06-13 13:18:39.849
119.0, -8835.46576922724, -4104.2943721168485, 0.0, 0.0, 0.0, 0.0, 0.0, 0.0, 0.026000000000000002, -0.038, 1.02, 192.0, 0.0, 0.0, 0.0, 0.0, 0.0, 0.0, 0.0, 0.0, 0.0, 1.623604719849859E9, 0.0, 2021-06-13 13:18:39.849
120.0, -8716.86741314738, -4090.19042136555, 0.0, 0.0, 0.0, 0.0, 0.0, 0.0, 0.026000000000000002, -0.038, 1.02, 192.0, 0.0, 0.0, 0.0, 0.0, 0.0, 0.0, 0.0, 0.0, 0.0, 1.623604719857901E9, 0.0, 2021-06-13 13:18:39.857
121.0, -8827.106216800954, -4103.020322682896, 0.0, 0.0, 0.0, 0.0, 0.0, 0.0, 0.026000000000000002, -0.038, 1.02, 192.0, 0.0, 0.0, 0.0, 0.0, 0.0, 0.0, 0.0, 0.0, 0.0, 1.623604719857908E9, 0.0, 2021-06-13 13:18:39.857
122.0, -8958.400363731429, -4112.609221054223, 0.0, 0.0, 0.0, 0.0, 0.0, 0.0, 0.026000000000000002, -0.038, 1.02, 192.0, 0.0, 0.0, 0.0, 0.0, 0.0, 0.0, 0.0, 0.0, 0.0, 1.623604719865042E9, 0.0, 2021-06-13 13:18:39.865
123.0, -8874.0448801571, -4102.975619193986, 0.0, 0.0, 0.0, 0.0, 0.0, 0.0, 0.026000000000000002, -0.038, 1.02, 192.0, 0.0, 0.0, 0.0, 0.0, 0.0, 0.0, 0.0, 0.0, 0.0, 1.623604719865049E9, 0.0, 2021-06-13 13:18:39.865
124.0, -8727.842119674935, -4094.705473745522, 0.0, 0.0, 0.0, 0.0, 0.0, 0.0, 0.026000000000000002, -0.038, 1.02, 192.0, 0.0, 0.0, 0.0, 0.0, 0.0, 0.0, 0.0, 0.0, 0.0, 1.623604719872517E9, 0.0, 2021-06-13 13:18:39.872
125.0, -8800.462937410228, -4098.259401113916, 0.0, 0.0, 0.0, 0.0, 0.0, 0.0, 0.026000000000000002, -0.038, 1.02, 192.0, 0.0, 0.0, 0.0, 0.0, 0.0, 0.0, 0.0, 0.0, 0.0, 1.623604719872526E9, 0.0, 2021-06-13 13:18:39.872
126.0, -8951.180750272364, -4105.523718061891, 0.0, 0.0, 0.0, 0.0, 0.0, 0.0, 0.022, -0.036000000000000004, 1.022, 192.0, 0.0, 176.0, 254.0, 224.0, 31.0, 240.0, 0.0, 0.0, 0.0, 1.623604719880525E9, 0.0, 2021-06-13 13:18:39.880
127.0, -8899.458813602783, -4105.948401206541, 0.0, 0.0, 0.0, 0.0, 0.0, 0.0, 0.022, -0.036000000000000004, 1.022, 192.0, 0.0, 0.0, 0.0, 0.0, 0.0, 0.0, 0.0, 0.0, 0.0, 1.623604719880535E9, 0.0, 2021-06-13 13:18:39.880
128.0, -8741.074352392478, -4101.209831382016, 0.0, 0.0, 0.0, 0.0, 0.0, 0.0, 0.022, -0.036000000000000004, 1.022, 192.0, 0.0, 0.0, 0.0, 0.0, 0.0, 0.0, 0.0, 0.0, 0.0, 1.623604719888526E9, 0.0, 2021-06-13 13:18:39.888
129.0, -8777.619454576905, -4110.977543708986, 0.0, 0.0, 0.0, 0.0, 0.0, 0.0, 0.022, -0.036000000000000004, 1.022, 192.0, 0.0, 0.0, 0.0, 0.0, 0.0, 0.0, 0.0, 0.0, 0.0, 1.623604719888533E9, 0.0, 2021-06-13 13:18:39.888
130.0, -8943.089418779542, -4128.501311361946, 0.0, 0.0, 0.0, 0.0, 0.0, 0.0, 0.022, -0.036000000000000004, 1.022, 192.0, 0.0, 0.0, 0.0, 0.0, 0.0, 0.0, 0.0, 0.0, 0.0, 1.623604719895216E9, 0.0, 2021-06-13 13:18:39.895
131.0, -8933.835796575046, -4132.39051489717, 0.0, 0.0, 0.0, 0.0, 0.0, 0.0, 0.022, -0.036000000000000004, 1.022, 192.0, 0.0, 0.0, 0.0, 0.0, 0.0, 0.0, 0.0, 0.0, 0.0, 1.623604719895223E9, 0.0, 2021-06-13 13:18:39.895
132.0, -8769.572826572994, -4120.298221146849, 0.0, 0.0, 0.0, 0.0, 0.0, 0.0, 0.022, -0.036000000000000004, 1.022, 192.0, 0.0, 0.0, 0.0, 0.0, 0.0, 0.0, 0.0, 0.0, 0.0, 1.623604719902228E9, 0.0, 2021-06-13 13:18:39.902
133.0, -8758.888692723358, -4119.314744390815, 0.0, 0.0, 0.0, 0.0, 0.0, 0.0, 0.022, -0.036000000000000004, 1.022, 192.0, 0.0, 0.0, 0.0, 0.0, 0.0, 0.0, 0.0, 0.0, 0.0, 1.623604719910302E9, 0.0, 2021-06-13 13:18:39.910
134.0, -8926.772645327168, -4128.724828806499, 0.0, 0.0, 0.0, 0.0, 0.0, 0.0, 0.022, -0.036000000000000004, 1.022, 192.0, 0.0, 0.0, 0.0, 0.0, 0.0, 0.0, 0.0, 0.0, 0.0, 1.623604719910311E9, 0.0, 2021-06-13 13:18:39.910
135.0, -8963.518913211694, -4122.376933381192, 0.0, 0.0, 0.0, 0.0, 0.0, 0.0, 0.022, -0.036000000000000004, 1.022, 192.0, 0.0, 0.0, 0.0, 0.0, 0.0, 0.0, 0.0, 0.0, 0.0, 1.623604719918182E9, 0.0, 2021-06-13 13:18:39.918
136.0, -8801.98285603319, -4109.457625086025, 0.0, 0.0, 0.0, 0.0, 0.0, 0.0, 0.024, -0.034, 1.024, 192.0, 0.0, 192.0, 254.0, 240.0, 32.0, 0.0, 0.0, 0.0, 0.0, 1.62360471991819E9, 0.0, 2021-06-13 13:18:39.918
137.0, -8743.689506493749, -4107.334209362771, 0.0, 0.0, 0.0, 0.0, 0.0, 0.0, 0.024, -0.034, 1.024, 192.0, 0.0, 0.0, 0.0, 0.0, 0.0, 0.0, 0.0, 0.0, 0.0, 1.623604719924841E9, 0.0, 2021-06-13 13:18:39.924
138.0, -8899.883496747434, -4121.48286360298, 0.0, 0.0, 0.0, 0.0, 0.0, 0.0, 0.024, -0.034, 1.024, 192.0, 0.0, 0.0, 0.0, 0.0, 0.0, 0.0, 0.0, 0.0, 0.0, 1.623604719924849E9, 0.0, 2021-06-13 13:18:39.924
139.0, -8971.699651682336, -4124.746218293455, 0.0, 0.0, 0.0, 0.0, 0.0, 0.0, 0.024, -0.034, 1.024, 192.0, 0.0, 0.0, 0.0, 0.0, 0.0, 0.0, 0.0, 0.0, 0.0, 1.623604719932849E9, 0.0, 2021-06-13 13:18:39.932
140.0, -8831.218937780732, -4116.319610633804, 0.0, 0.0, 0.0, 0.0, 0.0, 0.0, 0.024, -0.034, 1.024, 192.0, 0.0, 0.0, 0.0, 0.0, 0.0, 0.0, 0.0, 0.0, 0.0, 1.623604719932855E9, 0.0, 2021-06-13 13:18:39.932
141.0, -8737.386314557352, -4113.972677465997, 0.0, 0.0, 0.0, 0.0, 0.0, 0.0, 0.024, -0.034, 1.024, 192.0, 0.0, 0.0, 0.0, 0.0, 0.0, 0.0, 0.0, 0.0, 0.0, 1.623604719940975E9, 0.0, 2021-06-13 13:18:39.940
142.0, -8869.485124288216, -4119.426503113092, 0.0, 0.0, 0.0, 0.0, 0.0, 0.0, 0.024, -0.034, 1.024, 192.0, 0.0, 0.0, 0.0, 0.0, 0.0, 0.0, 0.0, 0.0, 0.0, 1.623604719940982E9, 0.0, 2021-06-13 13:18:39.940
143.0, -8980.01450061971, -4132.658735830633, 0.0, 0.0, 0.0, 0.0, 0.0, 0.0, 0.024, -0.034, 1.024, 192.0, 0.0, 0.0, 0.0, 0.0, 0.0, 0.0, 0.0, 0.0, 0.0, 1.623604719948055E9, 0.0, 2021-06-13 13:18:39.948
144.0, -8864.187760852308, -4130.669430574111, 0.0, 0.0, 0.0, 0.0, 0.0, 0.0, 0.024, -0.034, 1.024, 192.0, 0.0, 0.0, 0.0, 0.0, 0.0, 0.0, 0.0, 0.0, 0.0, 1.623604719948063E9, 0.0, 2021-06-13 13:18:39.948
145.0, -8736.022858145578, -4119.135930435173, 0.0, 0.0, 0.0, 0.0, 0.0, 0.0, 0.024, -0.034, 1.024, 192.0, 0.0, 0.0, 0.0, 0.0, 0.0, 0.0, 0.0, 0.0, 0.0, 1.623604719955466E9, 0.0, 2021-06-13 13:18:39.955
146.0, -8838.192682050787, -4126.6237648277, 0.0, 0.0, 0.0, 0.0, 0.0, 0.0, 0.026000000000000002, -0.03, 1.024, 192.0, 0.0, 208.0, 255.0, 16.0, 32.0, 0.0, 0.0, 0.0, 0.0, 1.623604719955473E9, 0.0, 2021-06-13 13:18:39.955
147.0, -8975.611206962014, -4139.744238822966, 0.0, 0.0, 0.0, 0.0, 0.0, 0.0, 0.026000000000000002, -0.03, 1.024, 192.0, 0.0, 0.0, 0.0, 0.0, 0.0, 0.0, 0.0, 0.0, 0.0, 1.623604719962554E9, 0.0, 2021-06-13 13:18:39.962
148.0, -8893.021511199655, -4135.385648654181, 0.0, 0.0, 0.0, 0.0, 0.0, 0.0, 0.026000000000000002, -0.03, 1.024, 192.0, 0.0, 0.0, 0.0, 0.0, 0.0, 0.0, 0.0, 0.0, 0.0, 1.623604719970552E9, 0.0, 2021-06-13 13:18:39.970
149.0, -8737.341611068441, -4119.895889746653, 0.0, 0.0, 0.0, 0.0, 0.0, 0.0, 0.026000000000000002, -0.03, 1.024, 192.0, 0.0, 0.0, 0.0, 0.0, 0.0, 0.0, 0.0, 0.0, 0.0, 1.623604719970558E9, 0.0, 2021-06-13 13:18:39.970
150.0, -8804.374492689907, -4120.074703702296, 0.0, 0.0, 0.0, 0.0, 0.0, 0.0, 0.026000000000000002, -0.03, 1.024, 192.0, 0.0, 0.0, 0.0, 0.0, 0.0, 0.0, 0.0, 0.0, 0.0, 1.623604719977739E9, 0.0, 2021-06-13 13:18:39.977
151.0, -8964.569445201094, -4127.8307590282875, 0.0, 0.0, 0.0, 0.0, 0.0, 0.0, 0.026000000000000002, -0.03, 1.024, 192.0, 0.0, 0.0, 0.0, 0.0, 0.0, 0.0, 0.0, 0.0, 0.0, 1.623604719977743E9, 0.0, 2021-06-13 13:18:39.977
152.0, -8920.156528968399, -4132.39051489717, 0.0, 0.0, 0.0, 0.0, 0.0, 0.0, 0.026000000000000002, -0.03, 1.024, 192.0, 0.0, 0.0, 0.0, 0.0, 0.0, 0.0, 0.0, 0.0, 0.0, 1.62360471998519E9, 0.0, 2021-06-13 13:18:39.985
153.0, -8754.30658511002, -4132.077590474795, 0.0, 0.0, 0.0, 0.0, 0.0, 0.0, 0.026000000000000002, -0.03, 1.024, 192.0, 0.0, 0.0, 0.0, 0.0, 0.0, 0.0, 0.0, 0.0, 0.0, 1.623604719985214E9, 0.0, 2021-06-13 13:18:39.985
154.0, -8777.910027254824, -4136.05620098784, 0.0, 0.0, 0.0, 0.0, 0.0, 0.0, 0.026000000000000002, -0.03, 1.024, 192.0, 0.0, 0.0, 0.0, 0.0, 0.0, 0.0, 0.0, 0.0, 0.0, 1.623604719993199E9, 0.0, 2021-06-13 13:18:39.993
155.0, -8945.883386836456, -4151.925939551108, 0.0, 0.0, 0.0, 0.0, 0.0, 0.0, 0.026000000000000002, -0.03, 1.024, 192.0, 0.0, 0.0, 0.0, 0.0, 0.0, 0.0, 0.0, 0.0, 0.0, 1.623604719993224E9, 0.0, 2021-06-13 13:18:39.993
156.0, -8946.799808359125, -4148.528474393902, 0.0, 0.0, 0.0, 0.0, 0.0, 0.0, 0.02, -0.032, 1.024, 192.0, 0.0, 160.0, 255.0, 0.0, 32.0, 0.0, 0.0, 0.0, 0.0, 1.623604720001171E9, 0.0, 2021-06-13 13:18:40.001
157.0, -8777.440640621262, -4131.049410229852, 0.0, 0.0, 0.0, 0.0, 0.0, 0.0, 0.02, -0.032, 1.024, 192.0, 0.0, 0.0, 0.0, 0.0, 0.0, 0.0, 0.0, 0.0, 0.0, 1.623604720001177E9, 0.0, 2021-06-13 13:18:40.001
158.0, -8752.518445553595, -4137.464360888524, 0.0, 0.0, 0.0, 0.0, 0.0, 0.0, 0.02, -0.032, 1.024, 192.0, 0.0, 0.0, 0.0, 0.0, 0.0, 0.0, 0.0, 0.0, 0.0, 1.62360472000774E9, 0.0, 2021-06-13 13:18:40.007
159.0, -8918.591906856527, -4146.2038929705495, 0.0, 0.0, 0.0, 0.0, 0.0, 0.0, 0.02, -0.032, 1.024, 192.0, 0.0, 0.0, 0.0, 0.0, 0.0, 0.0, 0.0, 0.0, 0.0, 1.623604720007747E9, 0.0, 2021-06-13 13:18:40.007
160.0, -8965.77643940168, -4153.468209918525, 0.0, 0.0, 0.0, 0.0, 0.0, 0.0, 0.02, -0.032, 1.024, 192.0, 0.0, 0.0, 0.0, 0.0, 0.0, 0.0, 0.0, 0.0, 0.0, 1.623604720015775E9, 0.0, 2021-06-13 13:18:40.015
161.0, -8813.404597449851, -4152.641195373678, 0.0, 0.0, 0.0, 0.0, 0.0, 0.0, 0.02, -0.032, 1.024, 192.0, 0.0, 0.0, 0.0, 0.0, 0.0, 0.0, 0.0, 0.0, 0.0, 1.623604720015799E9, 0.0, 2021-06-13 13:18:40.015
162.0, -8755.424172332785, -4152.104753506751, 0.0, 0.0, 0.0, 0.0, 0.0, 0.0, 0.02, -0.032, 1.024, 192.0, 0.0, 0.0, 0.0, 0.0, 0.0, 0.0, 0.0, 0.0, 0.0, 1.623604720022779E9, 0.0, 2021-06-13 13:18:40.022
163.0, -8911.461700375283, -4152.484733162491, 0.0, 0.0, 0.0, 0.0, 0.0, 0.0, 0.02, -0.032, 1.024, 192.0, 0.0, 0.0, 0.0, 0.0, 0.0, 0.0, 0.0, 0.0, 0.0, 1.623604720030034E9, 0.0, 2021-06-13 13:18:40.030
164.0, -8991.235076336274, -4143.924015036108, 0.0, 0.0, 0.0, 0.0, 0.0, 0.0, 0.02, -0.032, 1.024, 192.0, 0.0, 0.0, 0.0, 0.0, 0.0, 0.0, 0.0, 0.0, 0.0, 1.62360472003004E9, 0.0, 2021-06-13 13:18:40.030
165.0, -8855.537635748105, -4135.6762213321, 0.0, 0.0, 0.0, 0.0, 0.0, 0.0, 0.02, -0.032, 1.024, 192.0, 0.0, 0.0, 0.0, 0.0, 0.0, 0.0, 0.0, 0.0, 0.0, 1.623604720037386E9, 0.0, 2021-06-13 13:18:40.037
166.0, -8765.996547460145, -4139.140741722673, 0.0, 0.0, 0.0, 0.0, 0.0, 0.0, 0.024, -0.036000000000000004, 1.024, 192.0, 0.0, 192.0, 254.0, 224.0, 32.0, 0.0, 0.0, 0.0, 0.0, 1.623604720037392E9, 0.0, 2021-06-13 13:18:40.037
167.0, -8909.360636396485, -4145.622747614711, 0.0, 0.0, 0.0, 0.0, 0.0, 0.0, 0.024, -0.036000000000000004, 1.024, 192.0, 0.0, 0.0, 0.0, 0.0, 0.0, 0.0, 0.0, 0.0, 0.0, 1.623604720045353E9, 0.0, 2021-06-13 13:18:40.045
168.0, -9032.317582645128, -4151.657718617645, 0.0, 0.0, 0.0, 0.0, 0.0, 0.0, 0.024, -0.036000000000000004, 1.024, 192.0, 0.0, 0.0, 0.0, 0.0, 0.0, 0.0, 0.0, 0.0, 0.0, 1.623604720045358E9, 0.0, 2021-06-13 13:18:40.045
169.0, -8920.357694668495, -4140.303032434348, 0.0, 0.0, 0.0, 0.0, 0.0, 0.0, 0.024, -0.036000000000000004, 1.024, 192.0, 0.0, 0.0, 0.0, 0.0, 0.0, 0.0, 0.0, 0.0, 0.0, 1.623604720053386E9, 0.0, 2021-06-13 13:18:40.053
170.0, -8786.73896631467, -4133.8210265423095, 0.0, 0.0, 0.0, 0.0, 0.0, 0.0, 0.024, -0.036000000000000004, 1.024, 192.0, 0.0, 0.0, 0.0, 0.0, 0.0, 0.0, 0.0, 0.0, 0.0, 1.623604720053393E9, 0.0, 2021-06-13 13:18:40.053
171.0, -8897.715377535269, -4153.356451196248, 0.0, 0.0, 0.0, 0.0, 0.0, 0.0, 0.024, -0.036000000000000004, 1.024, 192.0, 0.0, 0.0, 0.0, 0.0, 0.0, 0.0, 0.0, 0.0, 0.0, 1.62360472006002E9, 0.0, 2021-06-13 13:18:40.060
172.0, -9058.647937613481, -4177.004596829963, 0.0, 0.0, 0.0, 0.0, 0.0, 0.0, 0.024, -0.036000000000000004, 1.024, 192.0, 0.0, 0.0, 0.0, 0.0, 0.0, 0.0, 0.0, 0.0, 0.0, 1.623604720060027E9, 0.0, 2021-06-13 13:18:40.060
173.0, -8975.208875561819, -4155.0104802859405, 0.0, 0.0, 0.0, 0.0, 0.0, 0.0, 0.024, -0.036000000000000004, 1.024, 192.0, 0.0, 0.0, 0.0, 0.0, 0.0, 0.0, 0.0, 0.0, 0.0, 1.623604720068128E9, 0.0, 2021-06-13 13:18:40.068
174.0, -8786.157820958832, -4137.442009144069, 0.0, 0.0, 0.0, 0.0, 0.0, 0.0, 0.024, -0.036000000000000004, 1.024, 192.0, 0.0, 0.0, 0.0, 0.0, 0.0, 0.0, 0.0, 0.0, 0.0, 1.623604720068134E9, 0.0, 2021-06-13 13:18:40.068
175.0, -8836.672763427827, -4146.069782503818, 0.0, 0.0, 0.0, 0.0, 0.0, 0.0, 0.022, -0.036000000000000004, 1.026, 192.0, 0.0, 176.0, 254.0, 224.0, 32.0, 16.0, 0.0, 0.0, 0.0, 1.623604720076013E9, 0.0, 2021-06-13 13:18:40.076
176.0, -9001.382768318983, -4156.508047164446, 0.0, 0.0, 0.0, 0.0, 0.0, 0.0, 0.022, -0.036000000000000004, 1.026, 192.0, 0.0, 0.0, 0.0, 0.0, 0.0, 0.0, 0.0, 0.0, 0.0, 1.62360472007602E9, 0.0, 2021-06-13 13:18:40.076
177.0, -8962.647195177937, -4153.15528549615, 0.0, 0.0, 0.0, 0.0, 0.0, 0.0, 0.022, -0.036000000000000004, 1.026, 192.0, 0.0, 0.0, 0.0, 0.0, 0.0, 0.0, 0.0, 0.0, 0.0, 1.623604720083162E9, 0.0, 2021-06-13 13:18:40.083
178.0, -8793.26567569562, -4141.6888405905775, 0.0, 0.0, 0.0, 0.0, 0.0, 0.0, 0.022, -0.036000000000000004, 1.026, 192.0, 0.0, 0.0, 0.0, 0.0, 0.0, 0.0, 0.0, 0.0, 0.0, 1.623604720083169E9, 0.0, 2021-06-13 13:18:40.083
179.0, -8805.26856246812, -4149.243730216472, 0.0, 0.0, 0.0, 0.0, 0.0, 0.0, 0.022, -0.036000000000000004, 1.026, 192.0, 0.0, 0.0, 0.0, 0.0, 0.0, 0.0, 0.0, 0.0, 0.0, 1.623604720089698E9, 0.0, 2021-06-13 13:18:40.089
180.0, -8985.20010533334, -4166.722794380521, 0.0, 0.0, 0.0, 0.0, 0.0, 0.0, 0.022, -0.036000000000000004, 1.026, 192.0, 0.0, 0.0, 0.0, 0.0, 0.0, 0.0, 0.0, 0.0, 0.0, 1.623604720097653E9, 0.0, 2021-06-13 13:18:40.097
181.0, -9001.718044485813, -4163.079460034306, 0.0, 0.0, 0.0, 0.0, 0.0, 0.0, 0.022, -0.036000000000000004, 1.026, 192.0, 0.0, 0.0, 0.0, 0.0, 0.0, 0.0, 0.0, 0.0, 0.0, 1.62360472009766E9, 0.0, 2021-06-13 13:18:40.097
182.0, -8812.085844526988, -4156.709212864544, 0.0, 0.0, 0.0, 0.0, 0.0, 0.0, 0.022, -0.036000000000000004, 1.026, 192.0, 0.0, 0.0, 0.0, 0.0, 0.0, 0.0, 0.0, 0.0, 0.0, 1.623604720105796E9, 0.0, 2021-06-13 13:18:40.105
183.0, -8754.999489188134, -4158.475000676513, 0.0, 0.0, 0.0, 0.0, 0.0, 0.0, 0.022, -0.036000000000000004, 1.026, 192.0, 0.0, 0.0, 0.0, 0.0, 0.0, 0.0, 0.0, 0.0, 0.0, 1.623604720105804E9, 0.0, 2021-06-13 13:18:40.105
184.0, -8907.773662540158, -4160.509009421946, 0.0, 0.0, 0.0, 0.0, 0.0, 0.0, 0.022, -0.036000000000000004, 1.026, 192.0, 0.0, 0.0, 0.0, 0.0, 0.0, 0.0, 0.0, 0.0, 0.0, 1.623604720113036E9, 0.0, 2021-06-13 13:18:40.113
185.0, -8958.10979105351, -4165.15817226865, 0.0, 0.0, 0.0, 0.0, 0.0, 0.0, 0.024, -0.038, 1.024, 192.0, 0.0, 192.0, 254.0, 208.0, 32.0, 0.0, 0.0, 0.0, 0.0, 1.623604720113041E9, 0.0, 2021-06-13 13:18:40.113
186.0, -8797.691321097771, -4151.277738961904, 0.0, 0.0, 0.0, 0.0, 0.0, 0.0, 0.024, -0.038, 1.024, 192.0, 0.0, 0.0, 0.0, 0.0, 0.0, 0.0, 0.0, 0.0, 0.0, 1.623604720120383E9, 0.0, 2021-06-13 13:18:40.120
187.0, -8715.123977079866, -4153.6023203852565, 0.0, 0.0, 0.0, 0.0, 0.0, 0.0, 0.024, -0.038, 1.024, 192.0, 0.0, 0.0, 0.0, 0.0, 0.0, 0.0, 0.0, 0.0, 0.0, 1.62360472012039E9, 0.0, 2021-06-13 13:18:40.120
188.0, -8863.830132941024, -4172.422489216625, 0.0, 0.0, 0.0, 0.0, 0.0, 0.0, 0.024, -0.038, 1.024, 192.0, 0.0, 0.0, 0.0, 0.0, 0.0, 0.0, 0.0, 0.0, 0.0, 1.623604720128372E9, 0.0, 2021-06-13 13:18:40.128
189.0, -8954.689974151846, -4176.915189852141, 0.0, 0.0, 0.0, 0.0, 0.0, 0.0, 0.024, -0.038, 1.024, 192.0, 0.0, 0.0, 0.0, 0.0, 0.0, 0.0, 0.0, 0.0, 0.0, 1.623604720128379E9, 0.0, 2021-06-13 13:18:40.128
190.0, -8823.395827221373, -4170.25437000446, 0.0, 0.0, 0.0, 0.0, 0.0, 0.0, 0.024, -0.038, 1.024, 192.0, 0.0, 0.0, 0.0, 0.0, 0.0, 0.0, 0.0, 0.0, 0.0, 1.623604720136274E9, 0.0, 2021-06-13 13:18:40.136
191.0, -8713.112320078888, -4158.452648932058, 0.0, 0.0, 0.0, 0.0, 0.0, 0.0, 0.024, -0.038, 1.024, 192.0, 0.0, 0.0, 0.0, 0.0, 0.0, 0.0, 0.0, 0.0, 0.0, 1.623604720136279E9, 0.0, 2021-06-13 13:18:40.136
192.0, -8829.922536602324, -4170.120259537728, 0.0, 0.0, 0.0, 0.0, 0.0, 0.0, 0.024, -0.038, 1.024, 192.0, 0.0, 0.0, 0.0, 0.0, 0.0, 0.0, 0.0, 0.0, 0.0, 1.623604720142862E9, 0.0, 2021-06-13 13:18:40.142
193.0, -8954.354697985018, -4180.983207343007, 0.0, 0.0, 0.0, 0.0, 0.0, 0.0, 0.024, -0.038, 1.024, 192.0, 0.0, 0.0, 0.0, 0.0, 0.0, 0.0, 0.0, 0.0, 0.0, 1.623604720142871E9, 0.0, 2021-06-13 13:18:40.142
194.0, -8852.877778157923, -4174.009463072952, 0.0, 0.0, 0.0, 0.0, 0.0, 0.0, 0.024, -0.038, 1.024, 192.0, 0.0, 0.0, 0.0, 0.0, 0.0, 0.0, 0.0, 0.0, 0.0, 1.623604720149857E9, 0.0, 2021-06-13 13:18:40.149
195.0, -8704.618657185873, -4166.387518213692, 0.0, 0.0, 0.0, 0.0, 0.0, 0.0, 0.028, -0.034, 1.024, 192.0, 0.0, 224.0, 254.0, 240.0, 32.0, 0.0, 0.0, 0.0, 0.0, 1.623604720158045E9, 0.0, 2021-06-13 13:18:40.158
196.0, -8788.460050637728, -4183.106623066262, 0.0, 0.0, 0.0, 0.0, 0.0, 0.0, 0.028, -0.034, 1.024, 192.0, 0.0, 0.0, 0.0, 0.0, 0.0, 0.0, 0.0, 0.0, 0.0, 1.623604720158053E9, 0.0, 2021-06-13 13:18:40.158
197.0, -8940.764837356191, -4213.21442284756, 0.0, 0.0, 0.0, 0.0, 0.0, 0.0, 0.028, -0.034, 1.024, 192.0, 0.0, 0.0, 0.0, 0.0, 0.0, 0.0, 0.0, 0.0, 0.0, 1.623604720165201E9, 0.0, 2021-06-13 13:18:40.165
198.0, -8878.738746492714, -4224.949088686596, 0.0, 0.0, 0.0, 0.0, 0.0, 0.0, 0.028, -0.034, 1.024, 192.0, 0.0, 0.0, 0.0, 0.0, 0.0, 0.0, 0.0, 0.0, 0.0, 1.623604720165224E9, 0.0, 2021-06-13 13:18:40.165
199.0, -8714.34166602393, -4183.061919577351, 0.0, 0.0, 0.0, 0.0, 0.0, 0.0, 0.028, -0.034, 1.024, 192.0, 0.0, 0.0, 0.0, 0.0, 0.0, 0.0, 0.0, 0.0, 0.0, 1.623604720172514E9, 0.0, 2021-06-13 13:18:40.172
200.0, -8759.961576457212, -4159.905512321653, 0.0, 0.0, 0.0, 0.0, 0.0, 0.0, 0.028, -0.034, 1.024, 192.0, 0.0, 0.0, 0.0, 0.0, 0.0, 0.0, 0.0, 0.0, 0.0, 1.623604720172522E9, 0.0, 2021-06-13 13:18:40.172
201.0, -8933.05348551911, -4175.484678207002, 0.0, 0.0, 0.0, 0.0, 0.0, 0.0, 0.028, -0.034, 1.024, 192.0, 0.0, 0.0, 0.0, 0.0, 0.0, 0.0, 0.0, 0.0, 0.0, 1.623604720180518E9, 0.0, 2021-06-13 13:18:40.180
202.0, -8928.896061050424, -4190.147422569683, 0.0, 0.0, 0.0, 0.0, 0.0, 0.0, 0.028, -0.034, 1.024, 192.0, 0.0, 0.0, 0.0, 0.0, 0.0, 0.0, 0.0, 0.0, 0.0, 1.623604720180526E9, 0.0, 2021-06-13 13:18:40.180
203.0, -8797.087823997477, -4186.2358672900045, 0.0, 0.0, 0.0, 0.0, 0.0, 0.0, 0.028, -0.034, 1.024, 192.0, 0.0, 0.0, 0.0, 0.0, 0.0, 0.0, 0.0, 0.0, 0.0, 1.623604720188632E9, 0.0, 2021-06-13 13:18:40.188
204.0, -8826.905051100857, -4181.229076532016, 0.0, 0.0, 0.0, 0.0, 0.0, 0.0, 0.028, -0.034, 1.024, 192.0, 0.0, 0.0, 0.0, 0.0, 0.0, 0.0, 0.0, 0.0, 0.0, 1.623604720188655E9, 0.0, 2021-06-13 13:18:40.188
205.0, -9087.74990889429, -4186.504088223468, 0.0, 0.0, 0.0, 0.0, 0.0, 0.0, 0.03, -0.036000000000000004, 1.026, 192.0, 0.0, 240.0, 254.0, 224.0, 32.0, 16.0, 0.0, 0.0, 0.0, 1.623604720195213E9, 0.0, 2021-06-13 13:18:40.195
206.0, -9273.179980895518, -4189.633332447211, 0.0, 0.0, 0.0, 0.0, 0.0, 0.0, 0.03, -0.036000000000000004, 1.026, 192.0, 0.0, 0.0, 0.0, 0.0, 0.0, 0.0, 0.0, 0.0, 0.0, 1.62360472019522E9, 0.0, 2021-06-13 13:18:40.195
207.0, -9271.034213427809, -4187.532268468412, 0.0, 0.0, 0.0, 0.0, 0.0, 0.0, 0.03, -0.036000000000000004, 1.026, 192.0, 0.0, 0.0, 0.0, 0.0, 0.0, 0.0, 0.0, 0.0, 0.0, 1.623604720203239E9, 0.0, 2021-06-13 13:18:40.203
208.0, -9445.713096346033, -4185.252390533971, 0.0, 0.0, 0.0, 0.0, 0.0, 0.0, 0.03, -0.036000000000000004, 1.026, 192.0, 0.0, 0.0, 0.0, 0.0, 0.0, 0.0, 0.0, 0.0, 0.0, 1.623604720203262E9, 0.0, 2021-06-13 13:18:40.203
209.0, -9979.159829516391, -4190.907381881164, 0.0, 0.0, 0.0, 0.0, 0.0, 0.0, 0.03, -0.036000000000000004, 1.026, 192.0, 0.0, 0.0, 0.0, 0.0, 0.0, 0.0, 0.0, 0.0, 0.0, 1.62360472021025E9, 0.0, 2021-06-13 13:18:40.210
210.0, -10323.913135995048, -4188.739262668999, 0.0, 0.0, 0.0, 0.0, 0.0, 0.0, 0.03, -0.036000000000000004, 1.026, 192.0, 0.0, 0.0, 0.0, 0.0, 0.0, 0.0, 0.0, 0.0, 0.0, 1.623604720218251E9, 0.0, 2021-06-13 13:18:40.218
211.0, -10229.767588349294, -4180.983207343007, 0.0, 0.0, 0.0, 0.0, 0.0, 0.0, 0.03, -0.036000000000000004, 1.026, 192.0, 0.0, 0.0, 0.0, 0.0, 0.0, 0.0, 0.0, 0.0, 0.0, 1.623604720218258E9, 0.0, 2021-06-13 13:18:40.218
212.0, -9975.628253892453, -4185.341797511792, 0.0, 0.0, 0.0, 0.0, 0.0, 0.0, 0.03, -0.036000000000000004, 1.026, 192.0, 0.0, 0.0, 0.0, 0.0, 0.0, 0.0, 0.0, 0.0, 0.0, 1.623604720224804E9, 0.0, 2021-06-13 13:18:40.224
213.0, -9877.347633522468, -4196.003579616974, 0.0, 0.0, 0.0, 0.0, 0.0, 0.0, 0.03, -0.036000000000000004, 1.026, 192.0, 0.0, 0.0, 0.0, 0.0, 0.0, 0.0, 0.0, 0.0, 0.0, 1.62360472022481E9, 0.0, 2021-06-13 13:18:40.224
214.0, -9641.916709174719, -4212.275649580437, 0.0, 0.0, 0.0, 0.0, 0.0, 0.0, 0.03, -0.036000000000000004, 1.026, 192.0, 0.0, 0.0, 0.0, 0.0, 0.0, 0.0, 0.0, 0.0, 0.0, 1.623604720232845E9, 0.0, 2021-06-13 13:18:40.232
215.0, -9137.929575196455, -4207.425321033636, 0.0, 0.0, 0.0, 0.0, 0.0, 0.0, 0.022, -0.036000000000000004, 1.028, 192.0, 0.0, 176.0, 254.0, 224.0, 32.0, 32.0, 0.0, 0.0, 0.0, 1.623604720232878E9, 0.0, 2021-06-13 13:18:40.232
216.0, -8853.436571769307, -4184.894762622686, 0.0, 0.0, 0.0, 0.0, 0.0, 0.0, 0.022, -0.036000000000000004, 1.028, 192.0, 0.0, 0.0, 0.0, 0.0, 0.0, 0.0, 0.0, 0.0, 0.0, 1.623604720240882E9, 0.0, 2021-06-13 13:18:40.240
217.0, -8898.542392080117, -4186.012349845451, 0.0, 0.0, 0.0, 0.0, 0.0, 0.0, 0.022, -0.036000000000000004, 1.028, 192.0, 0.0, 0.0, 0.0, 0.0, 0.0, 0.0, 0.0, 0.0, 0.0, 1.623604720240889E9, 0.0, 2021-06-13 13:18:40.240
218.0, -9033.323411145617, -4199.9151348966525, 0.0, 0.0, 0.0, 0.0, 0.0, 0.0, 0.022, -0.036000000000000004, 1.028, 192.0, 0.0, 0.0, 0.0, 0.0, 0.0, 0.0, 0.0, 0.0, 0.0, 1.623604720248049E9, 0.0, 2021-06-13 13:18:40.248
219.0, -8965.709384168315, -4203.960800643063, 0.0, 0.0, 0.0, 0.0, 0.0, 0.0, 0.022, -0.036000000000000004, 1.028, 192.0, 0.0, 0.0, 0.0, 0.0, 0.0, 0.0, 0.0, 0.0, 0.0, 1.623604720248058E9, 0.0, 2021-06-13 13:18:40.248
220.0, -8822.881737098902, -4200.920963397141, 0.0, 0.0, 0.0, 0.0, 0.0, 0.0, 0.022, -0.036000000000000004, 1.028, 192.0, 0.0, 0.0, 0.0, 0.0, 0.0, 0.0, 0.0, 0.0, 0.0, 1.623604720255451E9, 0.0, 2021-06-13 13:18:40.255
221.0, -8903.52683109365, -4204.050207620884, 0.0, 0.0, 0.0, 0.0, 0.0, 0.0, 0.022, -0.036000000000000004, 1.028, 192.0, 0.0, 0.0, 0.0, 0.0, 0.0, 0.0, 0.0, 0.0, 0.0, 1.623604720255458E9, 0.0, 2021-06-13 13:18:40.255
222.0, -9051.540082876692, -4205.436015777113, 0.0, 0.0, 0.0, 0.0, 0.0, 0.0, 0.022, -0.036000000000000004, 1.028, 192.0, 0.0, 0.0, 0.0, 0.0, 0.0, 0.0, 0.0, 0.0, 0.0, 1.623604720263544E9, 0.0, 2021-06-13 13:18:40.263
223.0, -8987.122355356498, -4198.0375883624065, 0.0, 0.0, 0.0, 0.0, 0.0, 0.0, 0.022, -0.036000000000000004, 1.028, 192.0, 0.0, 0.0, 0.0, 0.0, 0.0, 0.0, 0.0, 0.0, 0.0, 1.623604720263569E9, 0.0, 2021-06-13 13:18:40.263
224.0, -8811.884678826891, -4185.520611467435, 0.0, 0.0, 0.0, 0.0, 0.0, 0.0, 0.022, -0.036000000000000004, 1.028, 192.0, 0.0, 0.0, 0.0, 0.0, 0.0, 0.0, 0.0, 0.0, 0.0, 1.623604720270483E9, 0.0, 2021-06-13 13:18:40.270
225.0, -8843.266528042142, -4192.9860941155075, 0.0, 0.0, 0.0, 0.0, 0.0, 0.0, 0.024, -0.042, 1.026, 192.0, 0.0, 192.0, 254.0, 176.0, 32.0, 16.0, 0.0, 0.0, 0.0, 1.623604720277631E9, 0.0, 2021-06-13 13:18:40.277
226.0, -9015.062035925632, -4208.475853023035, 0.0, 0.0, 0.0, 0.0, 0.0, 0.0, 0.024, -0.042, 1.026, 192.0, 0.0, 0.0, 0.0, 0.0, 0.0, 0.0, 0.0, 0.0, 0.0, 1.623604720277635E9, 0.0, 2021-06-13 13:18:40.277
227.0, -9003.550887531148, -4205.637181477211, 0.0, 0.0, 0.0, 0.0, 0.0, 0.0, 0.024, -0.042, 1.026, 192.0, 0.0, 0.0, 0.0, 0.0, 0.0, 0.0, 0.0, 0.0, 0.0, 1.623604720285168E9, 0.0, 2021-06-13 13:18:40.285
228.0, -8831.487158714195, -4202.597344231289, 0.0, 0.0, 0.0, 0.0, 0.0, 0.0, 0.024, -0.042, 1.026, 192.0, 0.0, 0.0, 0.0, 0.0, 0.0, 0.0, 0.0, 0.0, 0.0, 1.623604720285191E9, 0.0, 2021-06-13 13:18:40.285
229.0, -8819.238402752686, -4243.255167395493, 0.0, 0.0, 0.0, 0.0, 0.0, 0.0, 0.024, -0.042, 1.026, 192.0, 0.0, 0.0, 0.0, 0.0, 0.0, 0.0, 0.0, 0.0, 0.0, 1.623604720293126E9, 0.0, 2021-06-13 13:18:40.293
230.0, -8992.084442625575, -4244.596272062811, 0.0, 0.0, 0.0, 0.0, 0.0, 0.0, 0.024, -0.042, 1.026, 192.0, 0.0, 0.0, 0.0, 0.0, 0.0, 0.0, 0.0, 0.0, 0.0, 1.623604720293134E9, 0.0, 2021-06-13 13:18:40.293
231.0, -9025.813225008635, -4195.623599961234, 0.0, 0.0, 0.0, 0.0, 0.0, 0.0, 0.024, -0.042, 1.026, 192.0, 0.0, 0.0, 0.0, 0.0, 0.0, 0.0, 0.0, 0.0, 0.0, 1.623604720301119E9, 0.0, 2021-06-13 13:18:40.301
232.0, -8860.834999184013, -4181.184373043105, 0.0, 0.0, 0.0, 0.0, 0.0, 0.0, 0.024, -0.042, 1.026, 192.0, 0.0, 0.0, 0.0, 0.0, 0.0, 0.0, 0.0, 0.0, 0.0, 1.623604720301125E9, 0.0, 2021-06-13 13:18:40.301
233.0, -8803.815699078525, -4185.788832400898, 0.0, 0.0, 0.0, 0.0, 0.0, 0.0, 0.024, -0.042, 1.026, 192.0, 0.0, 0.0, 0.0, 0.0, 0.0, 0.0, 0.0, 0.0, 0.0, 1.623604720309194E9, 0.0, 2021-06-13 13:18:40.309
234.0, -8970.716174926303, -4201.5915157308, 0.0, 0.0, 0.0, 0.0, 0.0, 0.0, 0.024, -0.042, 1.026, 192.0, 0.0, 0.0, 0.0, 0.0, 0.0, 0.0, 0.0, 0.0, 0.0, 1.6236047203092E9, 0.0, 2021-06-13 13:18:40.309
235.0, -9051.048344498677, -4209.414626290158, 0.0, 0.0, 0.0, 0.0, 0.0, 0.0, 0.024, -0.036000000000000004, 1.03, 192.0, 0.0, 192.0, 254.0, 224.0, 32.0, 48.0, 0.0, 0.0, 0.0, 1.623604720315821E9, 0.0, 2021-06-13 13:18:40.315
236.0, -8903.437424115828, -4207.291210566904, 0.0, 0.0, 0.0, 0.0, 0.0, 0.0, 0.024, -0.036000000000000004, 1.03, 192.0, 0.0, 0.0, 0.0, 0.0, 0.0, 0.0, 0.0, 0.0, 0.0, 1.623604720315828E9, 0.0, 2021-06-13 13:18:40.315
237.0, -8808.9789520477, -4215.561356015367, 0.0, 0.0, 0.0, 0.0, 0.0, 0.0, 0.024, -0.036000000000000004, 1.03, 192.0, 0.0, 0.0, 0.0, 0.0, 0.0, 0.0, 0.0, 0.0, 0.0, 1.623604720323786E9, 0.0, 2021-06-13 13:18:40.323
238.0, -8953.661793906904, -4221.886899696219, 0.0, 0.0, 0.0, 0.0, 0.0, 0.0, 0.024, -0.036000000000000004, 1.03, 192.0, 0.0, 0.0, 0.0, 0.0, 0.0, 0.0, 0.0, 0.0, 0.0, 1.62360472032381E9, 0.0, 2021-06-13 13:18:40.323
239.0, -9070.092030774598, -4223.138597385717, 0.0, 0.0, 0.0, 0.0, 0.0, 0.0, 0.024, -0.036000000000000004, 1.03, 192.0, 0.0, 0.0, 0.0, 0.0, 0.0, 0.0, 0.0, 0.0, 0.0, 1.623604720331037E9, 0.0, 2021-06-13 13:18:40.331
240.0, -8951.404267716916, -4210.375751301736, 0.0, 0.0, 0.0, 0.0, 0.0, 0.0, 0.024, -0.036000000000000004, 1.03, 192.0, 0.0, 0.0, 0.0, 0.0, 0.0, 0.0, 0.0, 0.0, 0.0, 1.623604720331044E9, 0.0, 2021-06-13 13:18:40.331
241.0, -8821.719446387226, -4201.815033175353, 0.0, 0.0, 0.0, 0.0, 0.0, 0.0, 0.024, -0.036000000000000004, 1.03, 192.0, 0.0, 0.0, 0.0, 0.0, 0.0, 0.0, 0.0, 0.0, 0.0, 1.623604720337424E9, 0.0, 2021-06-13 13:18:40.337
242.0, -8931.91354655189, -4215.315486826359, 0.0, 0.0, 0.0, 0.0, 0.0, 0.0, 0.024, -0.036000000000000004, 1.03, 192.0, 0.0, 0.0, 0.0, 0.0, 0.0, 0.0, 0.0, 0.0, 0.0, 1.6236047203454E9, 0.0, 2021-06-13 13:18:40.345
243.0, -9077.445754700393, -4227.02780092094, 0.0, 0.0, 0.0, 0.0, 0.0, 0.0, 0.024, -0.036000000000000004, 1.03, 192.0, 0.0, 0.0, 0.0, 0.0, 0.0, 0.0, 0.0, 0.0, 0.0, 1.623604720345404E9, 0.0, 2021-06-13 13:18:40.345
244.0, -8991.704462969836, -4215.226079848538, 0.0, 0.0, 0.0, 0.0, 0.0, 0.0, 0.026000000000000002, -0.036000000000000004, 1.03, 192.0, 0.0, 208.0, 254.0, 224.0, 32.0, 48.0, 0.0, 0.0, 0.0, 1.623604720353436E9, 0.0, 2021-06-13 13:18:40.353
245.0, -8835.823397138523, -4208.699370467588, 0.0, 0.0, 0.0, 0.0, 0.0, 0.0, 0.026000000000000002, -0.036000000000000004, 1.03, 192.0, 0.0, 0.0, 0.0, 0.0, 0.0, 0.0, 0.0, 0.0, 0.0, 1.623604720353443E9, 0.0, 2021-06-13 13:18:40.353
246.0, -8906.365502639474, -4215.851928693286, 0.0, 0.0, 0.0, 0.0, 0.0, 0.0, 0.026000000000000002, -0.036000000000000004, 1.03, 192.0, 0.0, 0.0, 0.0, 0.0, 0.0, 0.0, 0.0, 0.0, 0.0, 1.623604720360033E9, 0.0, 2021-06-13 13:18:40.360
247.0, -9071.053155786176, -4227.921870699152, 0.0, 0.0, 0.0, 0.0, 0.0, 0.0, 0.026000000000000002, -0.036000000000000004, 1.03, 192.0, 0.0, 0.0, 0.0, 0.0, 0.0, 0.0, 0.0, 0.0, 0.0, 1.62360472036004E9, 0.0, 2021-06-13 13:18:40.360
248.0, -9026.908460486944, -4225.5078822979785, 0.0, 0.0, 0.0, 0.0, 0.0, 0.0, 0.026000000000000002, -0.036000000000000004, 1.03, 192.0, 0.0, 0.0, 0.0, 0.0, 0.0, 0.0, 0.0, 0.0, 0.0, 1.623604720367999E9, 0.0, 2021-06-13 13:18:40.367
249.0, -8857.012850882156, -4218.534138027923, 0.0, 0.0, 0.0, 0.0, 0.0, 0.0, 0.026000000000000002, -0.036000000000000004, 1.03, 192.0, 0.0, 0.0, 0.0, 0.0, 0.0, 0.0, 0.0, 0.0, 0.0, 1.623604720368006E9, 0.0, 2021-06-13 13:18:40.368
250.0, -8882.292673861108, -4223.563280530368, 0.0, 0.0, 0.0, 0.0, 0.0, 0.0, 0.026000000000000002, -0.036000000000000004, 1.03, 192.0, 0.0, 0.0, 0.0, 0.0, 0.0, 0.0, 0.0, 0.0, 0.0, 1.623604720376168E9, 0.0, 2021-06-13 13:18:40.376
251.0, -9059.69846960288, -4232.392219590213, 0.0, 0.0, 0.0, 0.0, 0.0, 0.0, 0.026000000000000002, -0.036000000000000004, 1.03, 192.0, 0.0, 0.0, 0.0, 0.0, 0.0, 0.0, 0.0, 0.0, 0.0, 1.623604720376178E9, 0.0, 2021-06-13 13:18:40.376
252.0, -9063.520617904738, -4221.395161318203, 0.0, 0.0, 0.0, 0.0, 0.0, 0.0, 0.026000000000000002, -0.036000000000000004, 1.03, 192.0, 0.0, 0.0, 0.0, 0.0, 0.0, 0.0, 0.0, 0.0, 0.0, 1.623604720384105E9, 0.0, 2021-06-13 13:18:40.384
253.0, -8895.301389134096, -4217.3494955717915, 0.0, 0.0, 0.0, 0.0, 0.0, 0.0, 0.026000000000000002, -0.036000000000000004, 1.03, 192.0, 0.0, 0.0, 0.0, 0.0, 0.0, 0.0, 0.0, 0.0, 0.0, 1.623604720384115E9, 0.0, 2021-06-13 13:18:40.384
254.0, -8871.89911268939, -4225.060847408873, 0.0, 0.0, 0.0, 0.0, 0.0, 0.0, 0.024, -0.036000000000000004, 1.034, 192.0, 0.0, 192.0, 254.0, 224.0, 32.0, 80.0, 0.0, 0.0, 0.0, 1.623604720390677E9, 0.0, 2021-06-13 13:18:40.390
255.0, -9045.303946173663, -4239.991812705018, 0.0, 0.0, 0.0, 0.0, 0.0, 0.0, 0.024, -0.036000000000000004, 1.034, 192.0, 0.0, 0.0, 0.0, 0.0, 0.0, 0.0, 0.0, 0.0, 0.0, 1.623604720390685E9, 0.0, 2021-06-13 13:18:40.390
0.0, -9094.120156064053, -4236.884920225731, 0.0, 0.0, 0.0, 0.0, 0.0, 0.0, 0.024, -0.036000000000000004, 1.034, 192.0, 0.0, 0.0, 0.0, 0.0, 0.0, 0.0, 0.0, 0.0, 0.0, 1.623604720397705E9, 0.0, 2021-06-13 13:18:40.397
1.0, -8932.91937505238, -4214.332010070326, 0.0, 0.0, 0.0, 0.0, 0.0, 0.0, 0.024, -0.036000000000000004, 1.034, 192.0, 0.0, 0.0, 0.0, 0.0, 0.0, 0.0, 0.0, 0.0, 0.0, 1.623604720405684E9, 0.0, 2021-06-13 13:18:40.405
2.0, -8868.054612643076, -4220.255222350982, 0.0, 0.0, 0.0, 0.0, 0.0, 0.0, 0.024, -0.036000000000000004, 1.034, 192.0, 0.0, 0.0, 0.0, 0.0, 0.0, 0.0, 0.0, 0.0, 0.0, 1.62360472040569E9, 0.0, 2021-06-13 13:18:40.405
3.0, -9032.719914045325, -4247.211426164082, 0.0, 0.0, 0.0, 0.0, 0.0, 0.0, 0.024, -0.036000000000000004, 1.034, 192.0, 0.0, 0.0, 0.0, 0.0, 0.0, 0.0, 0.0, 0.0, 0.0, 1.623604720412848E9, 0.0, 2021-06-13 13:18:40.412
4.0, -9124.89850817901, -4258.610815836289, 0.0, 0.0, 0.0, 0.0, 0.0, 0.0, 0.024, -0.036000000000000004, 1.034, 192.0, 0.0, 0.0, 0.0, 0.0, 0.0, 0.0, 0.0, 0.0, 0.0, 1.623604720412852E9, 0.0, 2021-06-13 13:18:40.412
5.0, -8986.407099533928, -4255.123943701261, 0.0, 0.0, 0.0, 0.0, 0.0, 0.0, 0.024, -0.036000000000000004, 1.034, 192.0, 0.0, 0.0, 0.0, 0.0, 0.0, 0.0, 0.0, 0.0, 0.0, 1.623604720420374E9, 0.0, 2021-06-13 13:18:40.420
6.0, -8879.096374403998, -4233.174530646149, 0.0, 0.0, 0.0, 0.0, 0.0, 0.0, 0.024, -0.036000000000000004, 1.034, 192.0, 0.0, 0.0, 0.0, 0.0, 0.0, 0.0, 0.0, 0.0, 0.0, 1.623604720420381E9, 0.0, 2021-06-13 13:18:40.420
7.0, -9021.16406216193, -4225.21730962006, 0.0, 0.0, 0.0, 0.0, 0.0, 0.0, 0.024, -0.036000000000000004, 1.034, 192.0, 0.0, 0.0, 0.0, 0.0, 0.0, 0.0, 0.0, 0.0, 0.0, 1.62360472042834E9, 0.0, 2021-06-13 13:18:40.428
8.0, -9151.295918380729, -4237.26489988147, 0.0, 0.0, 0.0, 0.0, 0.0, 0.0, 0.02, -0.036000000000000004, 1.034, 192.0, 0.0, 160.0, 254.0, 224.0, 32.0, 80.0, 0.0, 0.0, 0.0, 1.623604720428346E9, 0.0, 2021-06-13 13:18:40.428
9.0, -9039.872472271023, -4237.26489988147, 0.0, 0.0, 0.0, 0.0, 0.0, 0.0, 0.02, -0.036000000000000004, 1.034, 192.0, 0.0, 0.0, 0.0, 0.0, 0.0, 0.0, 0.0, 0.0, 0.0, 1.623604720436258E9, 0.0, 2021-06-13 13:18:40.436
10.0, -8899.1011856915, -4231.118170156261, 0.0, 0.0, 0.0, 0.0, 0.0, 0.0, 0.02, -0.036000000000000004, 1.034, 192.0, 0.0, 0.0, 0.0, 0.0, 0.0, 0.0, 0.0, 0.0, 0.0, 1.623604720436264E9, 0.0, 2021-06-13 13:18:40.436
11.0, -9008.222402122308, -4242.785780761931, 0.0, 0.0, 0.0, 0.0, 0.0, 0.0, 0.02, -0.036000000000000004, 1.034, 192.0, 0.0, 0.0, 0.0, 0.0, 0.0, 0.0, 0.0, 0.0, 0.0, 1.623604720442912E9, 0.0, 2021-06-13 13:18:40.442
12.0, -9169.490238367349, -4249.312490142881, 0.0, 0.0, 0.0, 0.0, 0.0, 0.0, 0.02, -0.036000000000000004, 1.034, 192.0, 0.0, 0.0, 0.0, 0.0, 0.0, 0.0, 0.0, 0.0, 0.0, 1.623604720442919E9, 0.0, 2021-06-13 13:18:40.442
13.0, -9096.780013654234, -4256.956786746596, 0.0, 0.0, 0.0, 0.0, 0.0, 0.0, 0.02, -0.036000000000000004, 1.034, 192.0, 0.0, 0.0, 0.0, 0.0, 0.0, 0.0, 0.0, 0.0, 0.0, 1.623604720450923E9, 0.0, 2021-06-13 13:18:40.450
14.0, -8934.0593140196, -4246.764391274976, 0.0, 0.0, 0.0, 0.0, 0.0, 0.0, 0.02, -0.036000000000000004, 1.034, 192.0, 0.0, 0.0, 0.0, 0.0, 0.0, 0.0, 0.0, 0.0, 0.0, 1.623604720450932E9, 0.0, 2021-06-13 13:18:40.450
15.0, -8996.30892232763, -4234.158007402183, 0.0, 0.0, 0.0, 0.0, 0.0, 0.0, 0.02, -0.036000000000000004, 1.034, 192.0, 0.0, 0.0, 0.0, 0.0, 0.0, 0.0, 0.0, 0.0, 0.0, 1.623604720457905E9, 0.0, 2021-06-13 13:18:40.457
16.0, -9170.429011634471, -4236.817864992365, 0.0, 0.0, 0.0, 0.0, 0.0, 0.0, 0.02, -0.036000000000000004, 1.034, 192.0, 0.0, 0.0, 0.0, 0.0, 0.0, 0.0, 0.0, 0.0, 0.0, 1.623604720465941E9, 0.0, 2021-06-13 13:18:40.465
17.0, -9135.314421095183, -4239.097742926806, 0.0, 0.0, 0.0, 0.0, 0.0, 0.0, 0.02, -0.036000000000000004, 1.034, 192.0, 0.0, 0.0, 0.0, 0.0, 0.0, 0.0, 0.0, 0.0, 0.0, 1.623604720465948E9, 0.0, 2021-06-13 13:18:40.465
18.0, -8956.522817197183, -4245.669155796666, 0.0, 0.0, 0.0, 0.0, 0.0, 0.0, 0.022, -0.042, 1.028, 192.0, 0.0, 176.0, 254.0, 176.0, 32.0, 32.0, 0.0, 0.0, 0.0, 1.623604720472634E9, 0.0, 2021-06-13 13:18:40.472
19.0, -8973.174866816385, -4244.909196485186, 0.0, 0.0, 0.0, 0.0, 0.0, 0.0, 0.022, -0.042, 1.028, 192.0, 0.0, 0.0, 0.0, 0.0, 0.0, 0.0, 0.0, 0.0, 0.0, 1.62360472047264E9, 0.0, 2021-06-13 13:18:40.472
20.0, -9157.107371939108, -4250.050097709906, 0.0, 0.0, 0.0, 0.0, 0.0, 0.0, 0.022, -0.042, 1.028, 192.0, 0.0, 0.0, 0.0, 0.0, 0.0, 0.0, 0.0, 0.0, 0.0, 1.623604720480718E9, 0.0, 2021-06-13 13:18:40.480
21.0, -9164.036412720254, -4250.675946554655, 0.0, 0.0, 0.0, 0.0, 0.0, 0.0, 0.022, -0.042, 1.028, 192.0, 0.0, 0.0, 0.0, 0.0, 0.0, 0.0, 0.0, 0.0, 0.0, 1.623604720480726E9, 0.0, 2021-06-13 13:18:40.480
22.0, -8980.550942486638, -4251.3912023772245, 0.0, 0.0, 0.0, 0.0, 0.0, 0.0, 0.022, -0.042, 1.028, 192.0, 0.0, 0.0, 0.0, 0.0, 0.0, 0.0, 0.0, 0.0, 0.0, 1.623604720489245E9, 0.0, 2021-06-13 13:18:40.489
23.0, -8939.401380944417, -4252.866417511274, 0.0, 0.0, 0.0, 0.0, 0.0, 0.0, 0.022, -0.042, 1.028, 192.0, 0.0, 0.0, 0.0, 0.0, 0.0, 0.0, 0.0, 0.0, 0.0, 1.623604720489252E9, 0.0, 2021-06-13 13:18:40.489
24.0, -9103.999627113299, -4250.787705276931, 0.0, 0.0, 0.0, 0.0, 0.0, 0.0, 0.022, -0.042, 1.028, 192.0, 0.0, 0.0, 0.0, 0.0, 0.0, 0.0, 0.0, 0.0, 0.0, 1.623604720495917E9, 0.0, 2021-06-13 13:18:40.495
25.0, -9144.52333981077, -4244.640975551722, 0.0, 0.0, 0.0, 0.0, 0.0, 0.0, 0.022, -0.042, 1.028, 192.0, 0.0, 0.0, 0.0, 0.0, 0.0, 0.0, 0.0, 0.0, 0.0, 1.623604720495925E9, 0.0, 2021-06-13 13:18:40.495
26.0, -8959.24973002073, -4232.638088779222, 0.0, 0.0, 0.0, 0.0, 0.0, 0.0, 0.022, -0.042, 1.028, 192.0, 0.0, 0.0, 0.0, 0.0, 0.0, 0.0, 0.0, 0.0, 0.0, 1.62360472050318E9, 0.0, 2021-06-13 13:18:40.503
27.0, -8853.66008921386, -4235.0744289248505, 0.0, 0.0, 0.0, 0.0, 0.0, 0.0, 0.022, -0.042, 1.028, 192.0, 0.0, 0.0, 0.0, 0.0, 0.0, 0.0, 0.0, 0.0, 0.0, 1.623604720503189E9, 0.0, 2021-06-13 13:18:40.503
28.0, -8986.943541400855, -4250.8100570213865, 0.0, 0.0, 0.0, 0.0, 0.0, 0.0, 0.02, -0.04, 1.03, 192.0, 0.0, 160.0, 254.0, 192.0, 32.0, 48.0, 0.0, 0.0, 0.0, 1.623604720511205E9, 0.0, 2021-06-13 13:18:40.511
29.0, -9054.334050933607, -4252.464086111079, 0.0, 0.0, 0.0, 0.0, 0.0, 0.0, 0.02, -0.04, 1.03, 192.0, 0.0, 0.0, 0.0, 0.0, 0.0, 0.0, 0.0, 0.0, 0.0, 1.62360472051121E9, 0.0, 2021-06-13 13:18:40.511
30.0, -8876.816496469557, -4250.69829829911, 0.0, 0.0, 0.0, 0.0, 0.0, 0.0, 0.02, -0.04, 1.03, 192.0, 0.0, 0.0, 0.0, 0.0, 0.0, 0.0, 0.0, 0.0, 0.0, 1.623604720518386E9, 0.0, 2021-06-13 13:18:40.518
31.0, -8720.376637026864, -4252.799362277909, 0.0, 0.0, 0.0, 0.0, 0.0, 0.0, 0.02, -0.04, 1.03, 192.0, 0.0, 0.0, 0.0, 0.0, 0.0, 0.0, 0.0, 0.0, 0.0, 1.623604720525011E9, 0.0, 2021-06-13 13:18:40.525
32.0, -8820.199527764265, -4272.223028209571, 0.0, 0.0, 0.0, 0.0, 0.0, 0.0, 0.02, -0.04, 1.03, 192.0, 0.0, 0.0, 0.0, 0.0, 0.0, 0.0, 0.0, 0.0, 0.0, 1.623604720525018E9, 0.0, 2021-06-13 13:18:40.525
33.0, -8927.599659872016, -4270.792516564431, 0.0, 0.0, 0.0, 0.0, 0.0, 0.0, 0.02, -0.04, 1.03, 192.0, 0.0, 0.0, 0.0, 0.0, 0.0, 0.0, 0.0, 0.0, 0.0, 1.623604720532942E9, 0.0, 2021-06-13 13:18:40.532
34.0, -8791.768108817114, -4250.988870977029, 0.0, 0.0, 0.0, 0.0, 0.0, 0.0, 0.02, -0.04, 1.03, 192.0, 0.0, 0.0, 0.0, 0.0, 0.0, 0.0, 0.0, 0.0, 0.0, 1.62360472053297E9, 0.0, 2021-06-13 13:18:40.532
35.0, -8615.457548553652, -4249.334841887337, 0.0, 0.0, 0.0, 0.0, 0.0, 0.0, 0.02, -0.04, 1.03, 192.0, 0.0, 0.0, 0.0, 0.0, 0.0, 0.0, 0.0, 0.0, 0.0, 1.623604720540848E9, 0.0, 2021-06-13 13:18:40.540
36.0, -8694.158040780789, -4259.013147236485, 0.0, 0.0, 0.0, 0.0, 0.0, 0.0, 0.02, -0.04, 1.03, 192.0, 0.0, 0.0, 0.0, 0.0, 0.0, 0.0, 0.0, 0.0, 0.0, 1.623604720540854E9, 0.0, 2021-06-13 13:18:40.540
37.0, -8839.46673148474, -4270.36783341978, 0.0, 0.0, 0.0, 0.0, 0.0, 0.0, 0.02, -0.04, 1.03, 192.0, 0.0, 0.0, 0.0, 0.0, 0.0, 0.0, 0.0, 0.0, 0.0, 1.623604720548014E9, 0.0, 2021-06-13 13:18:40.548
38.0, -8757.413477589307, -4268.110307229795, 0.0, 0.0, 0.0, 0.0, 0.0, 0.0, 0.02, -0.038, 1.034, 192.0, 0.0, 160.0, 254.0, 208.0, 32.0, 80.0, 0.0, 0.0, 0.0, 1.62360472054802E9, 0.0, 2021-06-13 13:18:40.548
39.0, -8576.185533545677, -4258.432001880647, 0.0, 0.0, 0.0, 0.0, 0.0, 0.0, 0.02, -0.038, 1.034, 192.0, 0.0, 0.0, 0.0, 0.0, 0.0, 0.0, 0.0, 0.0, 0.0, 1.623604720555422E9, 0.0, 2021-06-13 13:18:40.555
40.0, -8619.078531155412, -4264.019937994473, 0.0, 0.0, 0.0, 0.0, 0.0, 0.0, 0.02, -0.038, 1.034, 192.0, 0.0, 0.0, 0.0, 0.0, 0.0, 0.0, 0.0, 0.0, 0.0, 1.623604720555446E9, 0.0, 2021-06-13 13:18:40.555
41.0, -8793.153916973342, -4281.119022502783, 0.0, 0.0, 0.0, 0.0, 0.0, 0.0, 0.02, -0.038, 1.034, 192.0, 0.0, 0.0, 0.0, 0.0, 0.0, 0.0, 0.0, 0.0, 0.0, 1.623604720563513E9, 0.0, 2021-06-13 13:18:40.563
42.0, -8765.057774193023, -4275.486382900046, 0.0, 0.0, 0.0, 0.0, 0.0, 0.0, 0.02, -0.038, 1.034, 192.0, 0.0, 0.0, 0.0, 0.0, 0.0, 0.0, 0.0, 0.0, 0.0, 1.623604720563519E9, 0.0, 2021-06-13 13:18:40.563
43.0, -8578.107783568834, -4266.925664773663, 0.0, 0.0, 0.0, 0.0, 0.0, 0.0, 0.02, -0.038, 1.034, 192.0, 0.0, 0.0, 0.0, 0.0, 0.0, 0.0, 0.0, 0.0, 0.0, 1.623604720571543E9, 0.0, 2021-06-13 13:18:40.571
44.0, -8575.783202145481, -4263.863475783286, 0.0, 0.0, 0.0, 0.0, 0.0, 0.0, 0.02, -0.038, 1.034, 192.0, 0.0, 0.0, 0.0, 0.0, 0.0, 0.0, 0.0, 0.0, 0.0, 1.623604720571549E9, 0.0, 2021-06-13 13:18:40.571
45.0, -8758.709878767715, -4273.251208454515, 0.0, 0.0, 0.0, 0.0, 0.0, 0.0, 0.02, -0.038, 1.034, 192.0, 0.0, 0.0, 0.0, 0.0, 0.0, 0.0, 0.0, 0.0, 0.0, 1.623604720577587E9, 0.0, 2021-06-13 13:18:40.577
46.0, -8779.87698076689, -4276.156935233705, 0.0, 0.0, 0.0, 0.0, 0.0, 0.0, 0.02, -0.038, 1.034, 192.0, 0.0, 0.0, 0.0, 0.0, 0.0, 0.0, 0.0, 0.0, 0.0, 1.623604720577591E9, 0.0, 2021-06-13 13:18:40.577
47.0, -8600.593638490873, -4265.137525217238, 0.0, 0.0, 0.0, 0.0, 0.0, 0.0, 0.02, -0.038, 1.034, 192.0, 0.0, 0.0, 0.0, 0.0, 0.0, 0.0, 0.0, 0.0, 0.0, 1.623604720585233E9, 0.0, 2021-06-13 13:18:40.585
48.0, -8556.35953621382, -4258.834333280842, 0.0, 0.0, 0.0, 0.0, 0.0, 0.0, 0.014, -0.032, 1.034, 192.0, 0.0, 112.0, 255.0, 0.0, 32.0, 80.0, 0.0, 0.0, 0.0, 1.623604720593184E9, 0.0, 2021-06-13 13:18:40.593
49.0, -8733.25124183312, -4282.795403336931, 0.0, 0.0, 0.0, 0.0, 0.0, 0.0, 0.014, -0.032, 1.034, 192.0, 0.0, 0.0, 0.0, 0.0, 0.0, 0.0, 0.0, 0.0, 0.0, 1.623604720593191E9, 0.0, 2021-06-13 13:18:40.593
50.0, -8800.753510088147, -4293.792461608942, 0.0, 0.0, 0.0, 0.0, 0.0, 0.0, 0.014, -0.032, 1.034, 192.0, 0.0, 0.0, 0.0, 0.0, 0.0, 0.0, 0.0, 0.0, 0.0, 1.623604720601208E9, 0.0, 2021-06-13 13:18:40.601
51.0, -8635.171787163234, -4265.383394406247, 0.0, 0.0, 0.0, 0.0, 0.0, 0.0, 0.014, -0.032, 1.034, 192.0, 0.0, 0.0, 0.0, 0.0, 0.0, 0.0, 0.0, 0.0, 0.0, 1.62360472060123E9, 0.0, 2021-06-13 13:18:40.601
52.0, -8542.367344184799, -4255.347461145814, 0.0, 0.0, 0.0, 0.0, 0.0, 0.0, 0.014, -0.032, 1.034, 192.0, 0.0, 0.0, 0.0, 0.0, 0.0, 0.0, 0.0, 0.0, 0.0, 1.623604720607821E9, 0.0, 2021-06-13 13:18:40.607
53.0, -8697.108471048889, -4282.281313214459, 0.0, 0.0, 0.0, 0.0, 0.0, 0.0, 0.014, -0.032, 1.034, 192.0, 0.0, 0.0, 0.0, 0.0, 0.0, 0.0, 0.0, 0.0, 0.0, 1.623604720607826E9, 0.0, 2021-06-13 13:18:40.607
54.0, -8806.587315390983, -4287.757490606009, 0.0, 0.0, 0.0, 0.0, 0.0, 0.0, 0.014, -0.032, 1.034, 192.0, 0.0, 0.0, 0.0, 0.0, 0.0, 0.0, 0.0, 0.0, 0.0, 1.623604720615643E9, 0.0, 2021-06-13 13:18:40.615
55.0, -8668.721755590648, -4272.960635776596, 0.0, 0.0, 0.0, 0.0, 0.0, 0.0, 0.014, -0.032, 1.034, 192.0, 0.0, 0.0, 0.0, 0.0, 0.0, 0.0, 0.0, 0.0, 0.0, 1.623604720615651E9, 0.0, 2021-06-13 13:18:40.615
56.0, -8541.160349984211, -4269.317301430381, 0.0, 0.0, 0.0, 0.0, 0.0, 0.0, 0.014, -0.032, 1.034, 192.0, 0.0, 0.0, 0.0, 0.0, 0.0, 0.0, 0.0, 0.0, 0.0, 1.623604720623819E9, 0.0, 2021-06-13 13:18:40.623
57.0, -8666.441877656207, -4292.160784263705, 0.0, 0.0, 0.0, 0.0, 0.0, 0.0, 0.018000000000000002, -0.032, 1.034, 192.0, 0.0, 144.0, 255.0, 0.0, 32.0, 80.0, 0.0, 0.0, 0.0, 1.623604720623826E9, 0.0, 2021-06-13 13:18:40.623
